COUNTER, AF3, F7, F3, FC5, T7, P7, O1, O2, P8, T8, FC6, F4, F8, AF4, GYROX, GYROY, TIMESTAMP, FUNC_ID, FUNC_VALUE, MARKER, SYNC_SIGNAL
31.000000,4416.410256,0.000000,0.000000,0.000000,5245.641026,0.000000,4493.333333,0.000000,0.000000,4458.974359,0.000000,0.000000,0.000000,4400.512821,8191.000000,8191.000000,14.499953,0.000000,0.000000,0.000000,0.000000,
32.000000,4382.564103,0.000000,0.000000,0.000000,5208.717949,0.000000,4490.256410,0.000000,0.000000,4447.692308,0.000000,0.000000,0.000000,4417.435897,8191.000000,8191.000000,14.507769,0.000000,0.000000,0.000000,0.000000,
33.000000,4397.948718,0.000000,0.000000,0.000000,5197.948718,0.000000,4501.025641,0.000000,0.000000,4456.410256,0.000000,0.000000,0.000000,4419.487179,8191.000000,8191.000000,14.515585,0.000000,0.000000,0.000000,0.000000,
34.000000,4432.820513,0.000000,0.000000,0.000000,5184.615385,0.000000,4500.000000,0.000000,0.000000,4463.076923,0.000000,0.000000,0.000000,4400.512821,8112.000000,8434.000000,14.523401,0.000000,0.000000,0.000000,0.000000,
35.000000,4431.794872,0.000000,0.000000,0.000000,5158.461538,0.000000,4496.410256,0.000000,0.000000,4457.435897,0.000000,0.000000,0.000000,4398.461538,8126.000000,8428.000000,14.531217,0.000000,0.000000,0.000000,0.000000,
36.000000,4420.512821,0.000000,0.000000,0.000000,5151.794872,0.000000,4520.000000,0.000000,0.000000,4442.051282,0.000000,0.000000,0.000000,4396.410256,8146.000000,8438.000000,14.539034,0.000000,0.000000,0.000000,0.000000,
37.000000,4406.153846,0.000000,0.000000,0.000000,5156.410256,0.000000,4569.743590,0.000000,0.000000,4484.102564,0.000000,0.000000,0.000000,4418.461538,8201.000000,8420.000000,14.546850,0.000000,0.000000,0.000000,0.000000,
38.000000,4433.333333,0.000000,0.000000,0.000000,5101.025641,0.000000,4438.461538,0.000000,0.000000,4510.769231,0.000000,0.000000,0.000000,4455.897436,8227.000000,8412.000000,14.554666,0.000000,0.000000,0.000000,0.000000,
39.000000,4432.307692,0.000000,0.000000,0.000000,5115.897436,0.000000,4533.846154,0.000000,0.000000,4393.846154,0.000000,0.000000,0.000000,4412.307692,8253.000000,8403.000000,14.562482,0.000000,0.000000,0.000000,0.000000,
40.000000,4331.794872,0.000000,0.000000,0.000000,5135.897436,0.000000,4708.717949,0.000000,0.000000,4547.692308,0.000000,0.000000,0.000000,4422.564103,8298.000000,8372.000000,14.570298,0.000000,0.000000,0.000000,0.000000,
41.000000,4524.102564,0.000000,0.000000,0.000000,4866.666667,0.000000,4047.179487,0.000000,0.000000,4634.871795,0.000000,0.000000,0.000000,4568.717949,8313.000000,8359.000000,14.578114,0.000000,0.000000,0.000000,0.000000,
42.000000,4561.025641,0.000000,0.000000,0.000000,4613.333333,0.000000,3806.153846,0.000000,0.000000,4282.564103,0.000000,0.000000,0.000000,4441.025641,8329.000000,8326.000000,14.585931,0.000000,0.000000,0.000000,0.000000,
43.000000,4289.743590,0.000000,0.000000,0.000000,4726.153846,0.000000,4366.153846,0.000000,0.000000,4132.307692,0.000000,0.000000,0.000000,4229.743590,8329.000000,8321.000000,14.593747,0.000000,0.000000,0.000000,0.000000,
44.000000,4171.282051,0.000000,0.000000,0.000000,4860.000000,0.000000,4605.641026,0.000000,0.000000,4308.717949,0.000000,0.000000,0.000000,4228.717949,8313.000000,8324.000000,14.601563,0.000000,0.000000,0.000000,0.000000,
45.000000,4342.051282,0.000000,0.000000,0.000000,4801.025641,0.000000,4269.743590,0.000000,0.000000,4361.025641,0.000000,0.000000,0.000000,4328.717949,8298.000000,8339.000000,14.609379,0.000000,0.000000,0.000000,0.000000,
46.000000,4325.641026,0.000000,0.000000,0.000000,4780.000000,0.000000,4371.794872,0.000000,0.000000,4236.410256,0.000000,0.000000,0.000000,4284.102564,8282.000000,8354.000000,14.617195,0.000000,0.000000,0.000000,0.000000,
47.000000,4222.564103,0.000000,0.000000,0.000000,4810.256410,0.000000,4485.128205,0.000000,0.000000,4325.128205,0.000000,0.000000,0.000000,4298.461538,8264.000000,8387.000000,14.625011,0.000000,0.000000,0.000000,0.000000,
48.000000,4293.333333,0.000000,0.000000,0.000000,4796.410256,0.000000,4361.025641,0.000000,0.000000,4297.435897,0.000000,0.000000,0.000000,4317.435897,8247.000000,8409.000000,14.632828,0.000000,0.000000,0.000000,0.000000,
49.000000,4280.512821,0.000000,0.000000,0.000000,4812.820513,0.000000,4421.538462,0.000000,0.000000,4294.871795,0.000000,0.000000,0.000000,4288.717949,8238.000000,8428.000000,14.640644,0.000000,0.000000,0.000000,0.000000,
50.000000,4290.769231,0.000000,0.000000,0.000000,4803.589744,0.000000,4389.230769,0.000000,0.000000,4306.666667,0.000000,0.000000,0.000000,4298.974359,8239.000000,8431.000000,14.648460,0.000000,0.000000,0.000000,0.000000,
51.000000,4290.769231,0.000000,0.000000,0.000000,4787.692308,0.000000,4387.692308,0.000000,0.000000,4278.974359,0.000000,0.000000,0.000000,4284.615385,8248.000000,8435.000000,14.656276,0.000000,0.000000,0.000000,0.000000,
52.000000,4281.025641,0.000000,0.000000,0.000000,4807.692308,0.000000,4393.333333,0.000000,0.000000,4286.666667,0.000000,0.000000,0.000000,4271.794872,8263.000000,8431.000000,14.664092,0.000000,0.000000,0.000000,0.000000,
53.000000,4277.948718,0.000000,0.000000,0.000000,4810.769231,0.000000,4380.000000,0.000000,0.000000,4273.333333,0.000000,0.000000,0.000000,4273.846154,8299.000000,8419.000000,14.671908,0.000000,0.000000,0.000000,0.000000,
54.000000,4265.641026,0.000000,0.000000,0.000000,4794.871795,0.000000,4390.769231,0.000000,0.000000,4276.923077,0.000000,0.000000,0.000000,4278.461538,8317.000000,8410.000000,14.679725,0.000000,0.000000,0.000000,0.000000,
55.000000,4254.358974,0.000000,0.000000,0.000000,4790.769231,0.000000,4386.153846,0.000000,0.000000,4287.179487,0.000000,0.000000,0.000000,4264.102564,8326.000000,8396.000000,14.687541,0.000000,0.000000,0.000000,0.000000,
56.000000,4239.487179,0.000000,0.000000,0.000000,4805.641026,0.000000,4391.794872,0.000000,0.000000,4278.461538,0.000000,0.000000,0.000000,4255.384615,8321.000000,8367.000000,14.695357,0.000000,0.000000,0.000000,0.000000,
57.000000,4249.230769,0.000000,0.000000,0.000000,4807.179487,0.000000,4378.461538,0.000000,0.000000,4263.589744,0.000000,0.000000,0.000000,4269.230769,8316.000000,8359.000000,14.703173,0.000000,0.000000,0.000000,0.000000,
58.000000,4260.000000,0.000000,0.000000,0.000000,4794.871795,0.000000,4373.333333,0.000000,0.000000,4247.692308,0.000000,0.000000,0.000000,4255.897436,8305.000000,8317.000000,14.710989,0.000000,0.000000,0.000000,0.000000,
59.000000,4272.307692,0.000000,0.000000,0.000000,4794.358974,0.000000,4379.487179,0.000000,0.000000,4251.794872,0.000000,0.000000,0.000000,4237.435897,8295.000000,8304.000000,14.718805,0.000000,0.000000,0.000000,0.000000,
60.000000,4289.743590,0.000000,0.000000,0.000000,4801.025641,0.000000,4394.871795,0.000000,0.000000,4276.410256,0.000000,0.000000,0.000000,4267.692308,8283.000000,8289.000000,14.726622,0.000000,0.000000,0.000000,0.000000,
61.000000,4265.641026,0.000000,0.000000,0.000000,4798.461538,0.000000,4392.307692,0.000000,0.000000,4284.615385,0.000000,0.000000,0.000000,4276.410256,8276.000000,8284.000000,14.734438,0.000000,0.000000,0.000000,0.000000,
62.000000,4256.410256,0.000000,0.000000,0.000000,4798.974359,0.000000,4389.230769,0.000000,0.000000,4264.615385,0.000000,0.000000,0.000000,4265.128205,8279.000000,8292.000000,14.742254,0.000000,0.000000,0.000000,0.000000,
63.000000,4279.487179,0.000000,0.000000,0.000000,4795.897436,0.000000,4397.435897,0.000000,0.000000,4274.358974,0.000000,0.000000,0.000000,4275.384615,8274.000000,8309.000000,14.750070,0.000000,0.000000,0.000000,0.000000,
64.000000,4298.461538,0.000000,0.000000,0.000000,4776.923077,0.000000,4386.153846,0.000000,0.000000,4283.076923,0.000000,0.000000,0.000000,4288.717949,8275.000000,8311.000000,14.757886,0.000000,0.000000,0.000000,0.000000,
65.000000,4294.358974,0.000000,0.000000,0.000000,4784.615385,0.000000,4383.589744,0.000000,0.000000,4280.000000,0.000000,0.000000,0.000000,4286.666667,8270.000000,8317.000000,14.765702,0.000000,0.000000,0.000000,0.000000,
66.000000,4288.717949,0.000000,0.000000,0.000000,4810.769231,0.000000,4384.102564,0.000000,0.000000,4275.384615,0.000000,0.000000,0.000000,4274.358974,8264.000000,8324.000000,14.773519,0.000000,0.000000,0.000000,0.000000,
67.000000,4268.717949,0.000000,0.000000,0.000000,4798.974359,0.000000,4389.230769,0.000000,0.000000,4281.025641,0.000000,0.000000,0.000000,4264.102564,8263.000000,8317.000000,14.781335,0.000000,0.000000,0.000000,0.000000,
68.000000,4280.000000,0.000000,0.000000,0.000000,4778.974359,0.000000,4387.692308,0.000000,0.000000,4284.102564,0.000000,0.000000,0.000000,4275.384615,8262.000000,8307.000000,14.789151,0.000000,0.000000,0.000000,0.000000,
69.000000,4289.230769,0.000000,0.000000,0.000000,4791.794872,0.000000,4392.307692,0.000000,0.000000,4270.769231,0.000000,0.000000,0.000000,4277.435897,8261.000000,8297.000000,14.796967,0.000000,0.000000,0.000000,0.000000,
70.000000,4266.666667,0.000000,0.000000,0.000000,4801.538462,0.000000,4372.307692,0.000000,0.000000,4251.282051,0.000000,0.000000,0.000000,4255.897436,8257.000000,8283.000000,14.804783,0.000000,0.000000,0.000000,0.000000,
71.000000,4246.153846,0.000000,0.000000,0.000000,4792.820513,0.000000,4371.282051,0.000000,0.000000,4256.410256,0.000000,0.000000,0.000000,4242.051282,8260.000000,8271.000000,14.812599,0.000000,0.000000,0.000000,0.000000,
72.000000,4246.666667,0.000000,0.000000,0.000000,4793.846154,0.000000,4376.410256,0.000000,0.000000,4274.871795,0.000000,0.000000,0.000000,4249.743590,8249.000000,8270.000000,14.820416,0.000000,0.000000,0.000000,0.000000,
73.000000,4238.974359,0.000000,0.000000,0.000000,4805.641026,0.000000,4380.000000,0.000000,0.000000,4262.051282,0.000000,0.000000,0.000000,4249.230769,8246.000000,8263.000000,14.828232,0.000000,0.000000,0.000000,0.000000,
74.000000,4253.846154,0.000000,0.000000,0.000000,4808.205128,0.000000,4375.384615,0.000000,0.000000,4261.025641,0.000000,0.000000,0.000000,4264.615385,8234.000000,8247.000000,14.836048,0.000000,0.000000,0.000000,0.000000,
75.000000,4275.384615,0.000000,0.000000,0.000000,4795.897436,0.000000,4381.538462,0.000000,0.000000,4286.666667,0.000000,0.000000,0.000000,4281.025641,8217.000000,8240.000000,14.843864,0.000000,0.000000,0.000000,0.000000,
76.000000,4273.846154,0.000000,0.000000,0.000000,4790.256410,0.000000,4376.410256,0.000000,0.000000,4295.384615,0.000000,0.000000,0.000000,4273.846154,8197.000000,8232.000000,14.851680,0.000000,0.000000,0.000000,0.000000,
77.000000,4274.358974,0.000000,0.000000,0.000000,4796.923077,0.000000,4377.435897,0.000000,0.000000,4274.871795,0.000000,0.000000,0.000000,4265.128205,8190.000000,8227.000000,14.859496,0.000000,0.000000,0.000000,0.000000,
78.000000,4284.102564,0.000000,0.000000,0.000000,4792.820513,0.000000,4381.025641,0.000000,0.000000,4280.512821,0.000000,0.000000,0.000000,4272.820513,8181.000000,8246.000000,14.867313,0.000000,0.000000,0.000000,0.000000,
79.000000,4290.769231,0.000000,0.000000,0.000000,4785.641026,0.000000,4385.128205,0.000000,0.000000,4289.743590,0.000000,0.000000,0.000000,4282.051282,8164.000000,8258.000000,14.875129,0.000000,0.000000,0.000000,0.000000,
80.000000,4281.538462,0.000000,0.000000,0.000000,4791.794872,0.000000,4384.615385,0.000000,0.000000,4281.025641,0.000000,0.000000,0.000000,4278.461538,8159.000000,8270.000000,14.882945,0.000000,0.000000,0.000000,0.000000,
81.000000,4271.282051,0.000000,0.000000,0.000000,4794.871795,0.000000,4377.948718,0.000000,0.000000,4268.205128,0.000000,0.000000,0.000000,4277.435897,8159.000000,8285.000000,14.890761,0.000000,0.000000,0.000000,0.000000,
82.000000,4266.666667,0.000000,0.000000,0.000000,4793.846154,0.000000,4374.358974,0.000000,0.000000,4282.564103,0.000000,0.000000,0.000000,4281.025641,8163.000000,8286.000000,14.898577,0.000000,0.000000,0.000000,0.000000,
83.000000,4289.230769,0.000000,0.000000,0.000000,4796.923077,0.000000,4367.179487,0.000000,0.000000,4295.897436,0.000000,0.000000,0.000000,4288.717949,8183.000000,8284.000000,14.906393,0.000000,0.000000,0.000000,0.000000,
84.000000,4288.717949,0.000000,0.000000,0.000000,4791.794872,0.000000,4373.333333,0.000000,0.000000,4289.230769,0.000000,0.000000,0.000000,4283.589744,8194.000000,8279.000000,14.914209,0.000000,0.000000,0.000000,0.000000,
85.000000,4271.282051,0.000000,0.000000,0.000000,4778.974359,0.000000,4369.230769,0.000000,0.000000,4258.974359,0.000000,0.000000,0.000000,4265.641026,8193.000000,8242.000000,14.922026,0.000000,0.000000,0.000000,0.000000,
86.000000,4259.487179,0.000000,0.000000,0.000000,4778.974359,0.000000,4370.769231,0.000000,0.000000,4248.717949,0.000000,0.000000,0.000000,4257.948718,8203.000000,8221.000000,14.929842,0.000000,0.000000,0.000000,0.000000,
87.000000,4261.538462,0.000000,0.000000,0.000000,4784.615385,0.000000,4364.615385,0.000000,0.000000,4260.512821,0.000000,0.000000,0.000000,4266.666667,8206.000000,8200.000000,14.937658,0.000000,0.000000,0.000000,0.000000,
88.000000,4250.256410,0.000000,0.000000,0.000000,4780.512821,0.000000,4374.358974,0.000000,0.000000,4259.487179,0.000000,0.000000,0.000000,4255.897436,8194.000000,8152.000000,14.945474,0.000000,0.000000,0.000000,0.000000,
89.000000,4248.717949,0.000000,0.000000,0.000000,4780.000000,0.000000,4371.794872,0.000000,0.000000,4261.025641,0.000000,0.000000,0.000000,4252.307692,8186.000000,8142.000000,14.953290,0.000000,0.000000,0.000000,0.000000,
90.000000,4263.076923,0.000000,0.000000,0.000000,4784.615385,0.000000,4372.307692,0.000000,0.000000,4271.282051,0.000000,0.000000,0.000000,4269.230769,8164.000000,8127.000000,14.961106,0.000000,0.000000,0.000000,0.000000,
91.000000,4271.794872,0.000000,0.000000,0.000000,4785.128205,0.000000,4363.076923,0.000000,0.000000,4265.641026,0.000000,0.000000,0.000000,4268.205128,8142.000000,8122.000000,14.968923,0.000000,0.000000,0.000000,0.000000,
92.000000,4260.512821,0.000000,0.000000,0.000000,4782.051282,0.000000,4362.564103,0.000000,0.000000,4251.794872,0.000000,0.000000,0.000000,4250.769231,8101.000000,8125.000000,14.976739,0.000000,0.000000,0.000000,0.000000,
93.000000,4247.179487,0.000000,0.000000,0.000000,4786.153846,0.000000,4361.538462,0.000000,0.000000,4264.615385,0.000000,0.000000,0.000000,4257.948718,8075.000000,8129.000000,14.984555,0.000000,0.000000,0.000000,0.000000,
94.000000,4249.743590,0.000000,0.000000,0.000000,4794.871795,0.000000,4365.128205,0.000000,0.000000,4277.435897,0.000000,0.000000,0.000000,4268.205128,8049.000000,8118.000000,14.992371,0.000000,0.000000,0.000000,0.000000,
95.000000,4268.205128,0.000000,0.000000,0.000000,4789.743590,0.000000,4365.641026,0.000000,0.000000,4282.051282,0.000000,0.000000,0.000000,4274.358974,8048.000000,8116.000000,15.000187,0.000000,0.000000,0.000000,0.000000,
96.000000,4288.717949,0.000000,0.000000,0.000000,4784.102564,0.000000,4374.871795,0.000000,0.000000,4273.846154,0.000000,0.000000,0.000000,4273.846154,8043.000000,8112.000000,15.008003,0.000000,0.000000,0.000000,0.000000,
97.000000,4303.589744,0.000000,0.000000,0.000000,4790.769231,0.000000,4380.000000,0.000000,0.000000,4280.000000,0.000000,0.000000,0.000000,4272.307692,8044.000000,8077.000000,15.015820,0.000000,0.000000,0.000000,0.000000,
98.000000,4305.641026,0.000000,0.000000,0.000000,4788.205128,0.000000,4368.717949,0.000000,0.000000,4284.615385,0.000000,0.000000,0.000000,4280.512821,8040.000000,8072.000000,15.023636,0.000000,0.000000,0.000000,0.000000,
99.000000,4274.358974,0.000000,0.000000,0.000000,4774.871795,0.000000,4362.051282,0.000000,0.000000,4277.948718,0.000000,0.000000,0.000000,4281.025641,8017.000000,8036.000000,15.031452,0.000000,0.000000,0.000000,0.000000,
100.000000,4243.076923,0.000000,0.000000,0.000000,4782.564103,0.000000,4360.000000,0.000000,0.000000,4258.461538,0.000000,0.000000,0.000000,4257.948718,8002.000000,8025.000000,15.039268,0.000000,0.000000,0.000000,0.000000,
101.000000,4240.000000,0.000000,0.000000,0.000000,4792.820513,0.000000,4363.589744,0.000000,0.000000,4278.974359,0.000000,0.000000,0.000000,4260.512821,7960.000000,8043.000000,15.047084,0.000000,0.000000,0.000000,0.000000,
102.000000,4272.307692,0.000000,0.000000,0.000000,4781.538462,0.000000,4361.025641,0.000000,0.000000,4306.666667,0.000000,0.000000,0.000000,4294.358974,7943.000000,8062.000000,15.054900,0.000000,0.000000,0.000000,0.000000,
103.000000,4290.769231,0.000000,0.000000,0.000000,4778.461538,0.000000,4380.000000,0.000000,0.000000,4305.128205,0.000000,0.000000,0.000000,4303.076923,7921.000000,8082.000000,15.062717,0.000000,0.000000,0.000000,0.000000,
104.000000,4303.076923,0.000000,0.000000,0.000000,4793.846154,0.000000,4384.102564,0.000000,0.000000,4290.256410,0.000000,0.000000,0.000000,4290.769231,7891.000000,8161.000000,15.070533,0.000000,0.000000,0.000000,0.000000,
105.000000,4318.974359,0.000000,0.000000,0.000000,4794.358974,0.000000,4395.897436,0.000000,0.000000,4307.179487,0.000000,0.000000,0.000000,4304.102564,7864.000000,8201.000000,15.078349,0.000000,0.000000,0.000000,0.000000,
106.000000,4315.897436,0.000000,0.000000,0.000000,4773.846154,0.000000,4392.820513,0.000000,0.000000,4315.897436,0.000000,0.000000,0.000000,4323.076923,7800.000000,8269.000000,15.086165,0.000000,0.000000,0.000000,0.000000,
107.000000,4274.871795,0.000000,0.000000,0.000000,4770.256410,0.000000,4378.974359,0.000000,0.000000,4292.307692,0.000000,0.000000,0.000000,4298.461538,7753.000000,8295.000000,15.093981,0.000000,0.000000,0.000000,0.000000,
108.000000,4256.923077,0.000000,0.000000,0.000000,4783.589744,0.000000,4360.000000,0.000000,0.000000,4292.820513,0.000000,0.000000,0.000000,4269.230769,7652.000000,8323.000000,15.101797,0.000000,0.000000,0.000000,0.000000,
109.000000,4258.974359,0.000000,0.000000,0.000000,4783.076923,0.000000,4373.846154,0.000000,0.000000,4298.974359,0.000000,0.000000,0.000000,4262.051282,7603.000000,8333.000000,15.109614,0.000000,0.000000,0.000000,0.000000,
110.000000,4260.000000,0.000000,0.000000,0.000000,4777.948718,0.000000,4390.256410,0.000000,0.000000,4292.820513,0.000000,0.000000,0.000000,4271.794872,7500.000000,8376.000000,15.117430,0.000000,0.000000,0.000000,0.000000,
111.000000,4263.076923,0.000000,0.000000,0.000000,4784.615385,0.000000,4396.923077,0.000000,0.000000,4281.025641,0.000000,0.000000,0.000000,4260.512821,7459.000000,8403.000000,15.125246,0.000000,0.000000,0.000000,0.000000,
112.000000,4261.538462,0.000000,0.000000,0.000000,4782.051282,0.000000,4395.897436,0.000000,0.000000,4295.897436,0.000000,0.000000,0.000000,4262.051282,7414.000000,8424.000000,15.133062,0.000000,0.000000,0.000000,0.000000,
113.000000,4223.076923,0.000000,0.000000,0.000000,4769.230769,0.000000,4391.282051,0.000000,0.000000,4278.974359,0.000000,0.000000,0.000000,4243.076923,7340.000000,8475.000000,15.140878,0.000000,0.000000,0.000000,0.000000,
114.000000,4179.487179,0.000000,0.000000,0.000000,4766.153846,0.000000,4385.128205,0.000000,0.000000,4262.051282,0.000000,0.000000,0.000000,4227.692308,7321.000000,8512.000000,15.148694,0.000000,0.000000,0.000000,0.000000,
115.000000,4169.230769,0.000000,0.000000,0.000000,4765.641026,0.000000,4374.358974,0.000000,0.000000,4245.128205,0.000000,0.000000,0.000000,4213.846154,7298.000000,8572.000000,15.156511,0.000000,0.000000,0.000000,0.000000,
116.000000,4188.717949,0.000000,0.000000,0.000000,4766.153846,0.000000,4372.307692,0.000000,0.000000,4263.076923,0.000000,0.000000,0.000000,4218.974359,7285.000000,8605.000000,15.164327,0.000000,0.000000,0.000000,0.000000,
117.000000,4208.717949,0.000000,0.000000,0.000000,4763.076923,0.000000,4372.820513,0.000000,0.000000,4270.769231,0.000000,0.000000,0.000000,4222.051282,7266.000000,8633.000000,15.172143,0.000000,0.000000,0.000000,0.000000,
118.000000,4202.051282,0.000000,0.000000,0.000000,4765.128205,0.000000,4385.128205,0.000000,0.000000,4268.717949,0.000000,0.000000,0.000000,4229.230769,7254.000000,8645.000000,15.179959,0.000000,0.000000,0.000000,0.000000,
119.000000,4189.230769,0.000000,0.000000,0.000000,4767.179487,0.000000,4382.564103,0.000000,0.000000,4248.717949,0.000000,0.000000,0.000000,4223.589744,7240.000000,8647.000000,15.187775,0.000000,0.000000,0.000000,0.000000,
120.000000,4168.717949,0.000000,0.000000,0.000000,4764.615385,0.000000,4383.589744,0.000000,0.000000,4252.307692,0.000000,0.000000,0.000000,4201.538462,7205.000000,8657.000000,15.195591,0.000000,0.000000,0.000000,0.000000,
121.000000,4133.333333,0.000000,0.000000,0.000000,4756.410256,0.000000,4381.025641,0.000000,0.000000,4248.205128,0.000000,0.000000,0.000000,4170.256410,7187.000000,8671.000000,15.203408,0.000000,0.000000,0.000000,0.000000,
122.000000,4105.128205,0.000000,0.000000,0.000000,4758.461538,0.000000,4387.179487,0.000000,0.000000,4231.794872,0.000000,0.000000,0.000000,4143.076923,7133.000000,8692.000000,15.211224,0.000000,0.000000,0.000000,0.000000,
123.000000,4115.384615,0.000000,0.000000,0.000000,4765.641026,0.000000,4382.564103,0.000000,0.000000,4227.179487,0.000000,0.000000,0.000000,4144.615385,7112.000000,8697.000000,15.219040,0.000000,0.000000,0.000000,0.000000,
124.000000,4121.025641,0.000000,0.000000,0.000000,4763.589744,0.000000,4385.128205,0.000000,0.000000,4223.076923,0.000000,0.000000,0.000000,4132.307692,7060.000000,8704.000000,15.226856,0.000000,0.000000,0.000000,0.000000,
125.000000,4124.102564,0.000000,0.000000,0.000000,4753.333333,0.000000,4387.179487,0.000000,0.000000,4245.128205,0.000000,0.000000,0.000000,4144.615385,7030.000000,8708.000000,15.234672,0.000000,0.000000,0.000000,0.000000,
126.000000,4081.538462,0.000000,0.000000,0.000000,4758.461538,0.000000,4381.025641,0.000000,0.000000,4224.615385,0.000000,0.000000,0.000000,4097.948718,6928.000000,8708.000000,15.242488,0.000000,0.000000,0.000000,0.000000,
127.000000,4061.025641,0.000000,0.000000,0.000000,4766.666667,0.000000,4373.333333,0.000000,0.000000,4211.794872,0.000000,0.000000,0.000000,4084.615385,6861.000000,8715.000000,15.250305,0.000000,0.000000,0.000000,0.000000,
128.000000,4043.076923,0.000000,0.000000,0.000000,4763.589744,0.000000,4372.307692,0.000000,0.000000,4198.974359,0.000000,0.000000,0.000000,4053.846154,6779.000000,8740.000000,15.258121,0.000000,0.000000,0.000000,0.000000,
0.000000,4023.589744,0.000000,0.000000,0.000000,4762.564103,0.000000,4368.717949,0.000000,0.000000,4228.205128,0.000000,0.000000,0.000000,4044.102564,6626.000000,8802.000000,15.265937,0.000000,0.000000,0.000000,0.000000,
1.000000,3950.769231,0.000000,0.000000,0.000000,4768.205128,0.000000,4343.589744,0.000000,0.000000,4191.794872,0.000000,0.000000,0.000000,3950.769231,6568.000000,8836.000000,15.273753,0.000000,0.000000,0.000000,0.000000,
2.000000,3969.230769,0.000000,0.000000,0.000000,4781.538462,0.000000,4354.358974,0.000000,0.000000,4207.692308,0.000000,0.000000,0.000000,3947.692308,6473.000000,8896.000000,15.281569,0.000000,0.000000,0.000000,0.000000,
3.000000,3979.487179,0.000000,0.000000,0.000000,4782.564103,0.000000,4374.871795,0.000000,0.000000,4223.589744,0.000000,0.000000,0.000000,3935.384615,6427.000000,8913.000000,15.289385,0.000000,0.000000,0.000000,0.000000,
4.000000,3946.666667,0.000000,0.000000,0.000000,4783.589744,0.000000,4370.769231,0.000000,0.000000,4251.794872,0.000000,0.000000,0.000000,3931.794872,6325.000000,8905.000000,15.297202,0.000000,0.000000,0.000000,0.000000,
5.000000,3827.692308,0.000000,0.000000,0.000000,4776.923077,0.000000,4326.153846,0.000000,0.000000,4220.512821,0.000000,0.000000,0.000000,3875.897436,6263.000000,8876.000000,15.305018,0.000000,0.000000,0.000000,0.000000,
6.000000,3727.179487,0.000000,0.000000,0.000000,4782.051282,0.000000,4320.512821,0.000000,0.000000,4251.794872,0.000000,0.000000,0.000000,3891.794872,6154.000000,8779.000000,15.312834,0.000000,0.000000,0.000000,0.000000,
7.000000,3556.923077,0.000000,0.000000,0.000000,4771.282051,0.000000,4311.794872,0.000000,0.000000,4246.666667,0.000000,0.000000,0.000000,3922.051282,6120.000000,8710.000000,15.320650,0.000000,0.000000,0.000000,0.000000,
8.000000,3366.153846,0.000000,0.000000,0.000000,4773.333333,0.000000,4304.102564,0.000000,0.000000,4260.000000,0.000000,0.000000,0.000000,4027.692308,6103.000000,8644.000000,15.328466,0.000000,0.000000,0.000000,0.000000,
9.000000,3201.538462,0.000000,0.000000,0.000000,4766.666667,0.000000,4303.076923,0.000000,0.000000,4263.076923,0.000000,0.000000,0.000000,4141.538462,6178.000000,8523.000000,15.336282,0.000000,0.000000,0.000000,0.000000,
10.000000,2987.179487,0.000000,0.000000,0.000000,4771.794872,0.000000,4327.179487,0.000000,0.000000,4306.666667,0.000000,0.000000,0.000000,4296.410256,6282.000000,8462.000000,15.344099,0.000000,0.000000,0.000000,0.000000,
11.000000,2885.641026,0.000000,0.000000,0.000000,4775.384615,0.000000,4333.846154,0.000000,0.000000,4318.974359,0.000000,0.000000,0.000000,4404.102564,6565.000000,8360.000000,15.351915,0.000000,0.000000,0.000000,0.000000,
12.000000,3187.179487,0.000000,0.000000,0.000000,4784.102564,0.000000,4335.384615,0.000000,0.000000,4295.897436,0.000000,0.000000,0.000000,4425.641026,6714.000000,8320.000000,15.359731,0.000000,0.000000,0.000000,0.000000,
13.000000,3940.512821,0.000000,0.000000,0.000000,4781.538462,0.000000,4327.179487,0.000000,0.000000,4286.153846,0.000000,0.000000,0.000000,4420.512821,7053.000000,8310.000000,15.367547,0.000000,0.000000,0.000000,0.000000,
14.000000,4638.461538,0.000000,0.000000,0.000000,4786.666667,0.000000,4316.410256,0.000000,0.000000,4236.923077,0.000000,0.000000,0.000000,4323.076923,7235.000000,8325.000000,15.375363,0.000000,0.000000,0.000000,0.000000,
15.000000,4953.333333,0.000000,0.000000,0.000000,4763.589744,0.000000,4306.666667,0.000000,0.000000,4220.512821,0.000000,0.000000,0.000000,4288.205128,7422.000000,8337.000000,15.383179,0.000000,0.000000,0.000000,0.000000,
16.000000,4962.051282,0.000000,0.000000,0.000000,4740.512821,0.000000,4313.846154,0.000000,0.000000,4162.564103,0.000000,0.000000,0.000000,4159.487179,7717.000000,8358.000000,15.390995,0.000000,0.000000,0.000000,0.000000,
17.000000,4871.282051,0.000000,0.000000,0.000000,4729.743590,0.000000,4327.692308,0.000000,0.000000,4204.615385,0.000000,0.000000,0.000000,4165.128205,7817.000000,8362.000000,15.398812,0.000000,0.000000,0.000000,0.000000,
18.000000,4661.538462,0.000000,0.000000,0.000000,4741.538462,0.000000,4346.153846,0.000000,0.000000,4176.410256,0.000000,0.000000,0.000000,4102.564103,7948.000000,8366.000000,15.406628,0.000000,0.000000,0.000000,0.000000,
19.000000,4466.153846,0.000000,0.000000,0.000000,4744.615385,0.000000,4355.384615,0.000000,0.000000,4187.692308,0.000000,0.000000,0.000000,4132.820513,7997.000000,8360.000000,15.414444,0.000000,0.000000,0.000000,0.000000,
20.000000,4260.512821,0.000000,0.000000,0.000000,4738.461538,0.000000,4358.974359,0.000000,0.000000,4136.923077,0.000000,0.000000,0.000000,4076.410256,8006.000000,8341.000000,15.422260,0.000000,0.000000,0.000000,0.000000,
21.000000,4222.051282,0.000000,0.000000,0.000000,4746.153846,0.000000,4391.282051,0.000000,0.000000,4171.794872,0.000000,0.000000,0.000000,4127.179487,7982.000000,8339.000000,15.430076,0.000000,0.000000,0.000000,0.000000,
22.000000,4119.487179,0.000000,0.000000,0.000000,4748.205128,0.000000,4425.128205,0.000000,0.000000,4147.179487,0.000000,0.000000,0.000000,4095.897436,7897.000000,8349.000000,15.437892,0.000000,0.000000,0.000000,0.000000,
23.000000,4113.333333,0.000000,0.000000,0.000000,4749.743590,0.000000,4442.051282,0.000000,0.000000,4105.128205,0.000000,0.000000,0.000000,4053.846154,7854.000000,8371.000000,15.445709,0.000000,0.000000,0.000000,0.000000,
24.000000,3955.384615,0.000000,0.000000,0.000000,4727.179487,0.000000,4436.410256,0.000000,0.000000,4016.923077,0.000000,0.000000,0.000000,4015.897436,7802.000000,8387.000000,15.453525,0.000000,0.000000,0.000000,0.000000,
25.000000,3927.179487,0.000000,0.000000,0.000000,4744.615385,0.000000,4451.282051,0.000000,0.000000,3996.923077,0.000000,0.000000,0.000000,4021.025641,7706.000000,8401.000000,15.461341,0.000000,0.000000,0.000000,0.000000,
26.000000,3812.820513,0.000000,0.000000,0.000000,4730.256410,0.000000,4440.512821,0.000000,0.000000,3965.128205,0.000000,0.000000,0.000000,3980.512821,7663.000000,8394.000000,15.469157,0.000000,0.000000,0.000000,0.000000,
27.000000,3728.717949,0.000000,0.000000,0.000000,4739.487179,0.000000,4439.487179,0.000000,0.000000,3878.974359,0.000000,0.000000,0.000000,3927.692308,7678.000000,8340.000000,15.476973,0.000000,0.000000,0.000000,0.000000,
28.000000,3674.871795,0.000000,0.000000,0.000000,4728.717949,0.000000,4427.692308,0.000000,0.000000,3780.512821,0.000000,0.000000,0.000000,3877.948718,7579.000000,8172.000000,15.484789,0.000000,0.000000,0.000000,0.000000,
29.000000,3667.179487,0.000000,0.000000,0.000000,4755.897436,0.000000,4462.564103,0.000000,0.000000,3463.076923,0.000000,0.000000,0.000000,3809.743590,7385.000000,7777.000000,15.492606,0.000000,0.000000,0.000000,0.000000,
30.000000,3625.128205,0.000000,0.000000,0.000000,4733.846154,0.000000,4483.076923,0.000000,0.000000,3206.153846,0.000000,0.000000,0.000000,3691.794872,7230.000000,7525.000000,15.500422,0.000000,0.000000,0.000000,0.000000,
31.000000,3346.153846,0.000000,0.000000,0.000000,4705.641026,0.000000,4453.333333,0.000000,0.000000,3260.000000,0.000000,0.000000,0.000000,3701.025641,7324.000000,7292.000000,15.508238,0.000000,0.000000,0.000000,0.000000,
32.000000,3155.384615,0.000000,0.000000,0.000000,4735.384615,0.000000,4529.743590,0.000000,0.000000,2187.179487,0.000000,0.000000,0.000000,3388.717949,7346.000000,7412.000000,15.516054,0.000000,0.000000,0.000000,0.000000,
33.000000,3063.076923,0.000000,0.000000,0.000000,4752.307692,0.000000,4752.307692,0.000000,0.000000,1410.256410,0.000000,0.000000,0.000000,3032.307692,7617.000000,7575.000000,15.523870,0.000000,0.000000,0.000000,0.000000,
34.000000,2471.794872,0.000000,0.000000,0.000000,4674.871795,0.000000,4672.307692,0.000000,0.000000,3266.153846,0.000000,0.000000,0.000000,3542.564103,7657.000000,7590.000000,15.531686,0.000000,0.000000,0.000000,0.000000,
35.000000,2323.076923,0.000000,0.000000,0.000000,4713.846154,0.000000,4457.948718,0.000000,0.000000,5391.282051,0.000000,0.000000,0.000000,4461.025641,7705.000000,7669.000000,15.539503,0.000000,0.000000,0.000000,0.000000,
36.000000,3772.820513,0.000000,0.000000,0.000000,4813.846154,0.000000,4487.179487,0.000000,0.000000,5249.230769,0.000000,0.000000,0.000000,4450.256410,7722.000000,7786.000000,15.547319,0.000000,0.000000,0.000000,0.000000,
37.000000,4983.589744,0.000000,0.000000,0.000000,4796.923077,0.000000,4546.666667,0.000000,0.000000,4522.051282,0.000000,0.000000,0.000000,4176.410256,7757.000000,7883.000000,15.555135,0.000000,0.000000,0.000000,0.000000,
38.000000,4801.538462,0.000000,0.000000,0.000000,4748.205128,0.000000,4296.923077,0.000000,0.000000,4364.102564,0.000000,0.000000,0.000000,4842.051282,7743.000000,8172.000000,15.562951,0.000000,0.000000,0.000000,0.000000,
39.000000,4393.333333,0.000000,0.000000,0.000000,4725.641026,0.000000,4227.692308,0.000000,0.000000,3963.589744,0.000000,0.000000,0.000000,5392.820513,7642.000000,8236.000000,15.570767,0.000000,0.000000,0.000000,0.000000,
40.000000,4353.846154,0.000000,0.000000,0.000000,4693.846154,0.000000,4482.051282,0.000000,0.000000,3993.333333,0.000000,0.000000,0.000000,5037.948718,7592.000000,8250.000000,15.578583,0.000000,0.000000,0.000000,0.000000,
41.000000,4130.256410,0.000000,0.000000,0.000000,4703.076923,0.000000,4571.282051,0.000000,0.000000,4348.205128,0.000000,0.000000,0.000000,4347.179487,7508.000000,8339.000000,15.586400,0.000000,0.000000,0.000000,0.000000,
42.000000,3953.846154,0.000000,0.000000,0.000000,4710.256410,0.000000,4443.589744,0.000000,0.000000,4491.794872,0.000000,0.000000,0.000000,3849.743590,7494.000000,8442.000000,15.594216,0.000000,0.000000,0.000000,0.000000,
43.000000,3736.410256,0.000000,0.000000,0.000000,4657.435897,0.000000,4411.282051,0.000000,0.000000,4574.358974,0.000000,0.000000,0.000000,3452.820513,7454.000000,8510.000000,15.602032,0.000000,0.000000,0.000000,0.000000,
44.000000,3383.076923,0.000000,0.000000,0.000000,4737.948718,0.000000,4512.820513,0.000000,0.000000,4697.948718,0.000000,0.000000,0.000000,3361.538462,7414.000000,8478.000000,15.609848,0.000000,0.000000,0.000000,0.000000,
45.000000,3213.333333,0.000000,0.000000,0.000000,4849.743590,0.000000,4573.333333,0.000000,0.000000,4580.000000,0.000000,0.000000,0.000000,3772.307692,7403.000000,8351.000000,15.617664,0.000000,0.000000,0.000000,0.000000,
46.000000,3618.974359,0.000000,0.000000,0.000000,4847.692308,0.000000,4590.769231,0.000000,0.000000,4347.692308,0.000000,0.000000,0.000000,4553.846154,7363.000000,8190.000000,15.625480,0.000000,0.000000,0.000000,0.000000,
47.000000,4262.051282,0.000000,0.000000,0.000000,4758.461538,0.000000,4466.153846,0.000000,0.000000,4283.076923,0.000000,0.000000,0.000000,5064.615385,7354.000000,7524.000000,15.633297,0.000000,0.000000,0.000000,0.000000,
48.000000,4362.051282,0.000000,0.000000,0.000000,4713.333333,0.000000,4264.102564,0.000000,0.000000,4375.897436,0.000000,0.000000,0.000000,5080.000000,7358.000000,7133.000000,15.641113,0.000000,0.000000,0.000000,0.000000,
49.000000,4022.051282,0.000000,0.000000,0.000000,4731.282051,0.000000,4294.358974,0.000000,0.000000,4531.282051,0.000000,0.000000,0.000000,4866.666667,7328.000000,6794.000000,15.648929,0.000000,0.000000,0.000000,0.000000,
50.000000,4073.846154,0.000000,0.000000,0.000000,4782.051282,0.000000,4549.230769,0.000000,0.000000,4726.666667,0.000000,0.000000,0.000000,4638.974359,7462.000000,7299.000000,15.656745,0.000000,0.000000,0.000000,0.000000,
51.000000,4150.769231,0.000000,0.000000,0.000000,4748.205128,0.000000,4730.256410,0.000000,0.000000,5114.871795,0.000000,0.000000,0.000000,4357.435897,8467.000000,9949.000000,15.664561,0.000000,0.000000,0.000000,0.000000,
52.000000,4088.205128,0.000000,0.000000,0.000000,4885.641026,0.000000,5255.384615,0.000000,0.000000,6273.333333,0.000000,0.000000,0.000000,4421.025641,7808.000000,7442.000000,15.672377,0.000000,0.000000,0.000000,0.000000,
53.000000,4606.153846,0.000000,0.000000,0.000000,5177.435897,0.000000,5983.589744,0.000000,0.000000,6620.000000,0.000000,0.000000,0.000000,4841.538462,7708.000000,6904.000000,15.680194,0.000000,0.000000,0.000000,0.000000,
54.000000,5854.871795,0.000000,0.000000,0.000000,5356.410256,0.000000,6792.307692,0.000000,0.000000,6936.410256,0.000000,0.000000,0.000000,5469.743590,8121.000000,8321.000000,15.688010,0.000000,0.000000,0.000000,0.000000,
55.000000,6545.641026,0.000000,0.000000,0.000000,5295.897436,0.000000,7430.256410,0.000000,0.000000,8322.051282,0.000000,0.000000,0.000000,5845.128205,8159.000000,9006.000000,15.695826,0.000000,0.000000,0.000000,0.000000,
56.000000,6106.666667,0.000000,0.000000,0.000000,4887.179487,0.000000,6241.538462,0.000000,0.000000,7332.307692,0.000000,0.000000,0.000000,5564.615385,8316.000000,8015.000000,15.703642,0.000000,0.000000,0.000000,0.000000,
57.000000,5166.153846,0.000000,0.000000,0.000000,4474.871795,0.000000,3750.769231,0.000000,0.000000,3716.923077,0.000000,0.000000,0.000000,4519.487179,8077.000000,8104.000000,15.711458,0.000000,0.000000,0.000000,0.000000,
58.000000,4851.794872,0.000000,0.000000,0.000000,4529.230769,0.000000,3202.051282,0.000000,0.000000,3954.358974,0.000000,0.000000,0.000000,3287.179487,7910.000000,7860.000000,15.719274,0.000000,0.000000,0.000000,0.000000,
59.000000,4712.820513,0.000000,0.000000,0.000000,4646.153846,0.000000,3905.641026,0.000000,0.000000,6982.051282,0.000000,0.000000,0.000000,3184.102564,8285.000000,8034.000000,15.727091,0.000000,0.000000,0.000000,0.000000,
60.000000,3937.435897,0.000000,0.000000,0.000000,4530.769231,0.000000,3325.641026,0.000000,0.000000,5668.717949,0.000000,0.000000,0.000000,3994.358974,8569.000000,8395.000000,15.734907,0.000000,0.000000,0.000000,0.000000,
61.000000,3368.717949,0.000000,0.000000,0.000000,4571.282051,0.000000,3475.897436,0.000000,0.000000,2423.076923,0.000000,0.000000,0.000000,4616.410256,7881.000000,8457.000000,15.742723,0.000000,0.000000,0.000000,0.000000,
62.000000,3476.410256,0.000000,0.000000,0.000000,4746.666667,0.000000,5120.512821,0.000000,0.000000,2382.564103,0.000000,0.000000,0.000000,4585.641026,8066.000000,8356.000000,15.750539,0.000000,0.000000,0.000000,0.000000,
63.000000,3543.589744,0.000000,0.000000,0.000000,4742.051282,0.000000,5285.641026,0.000000,0.000000,4512.820513,0.000000,0.000000,0.000000,4302.564103,8297.000000,7869.000000,15.758355,0.000000,0.000000,0.000000,0.000000,
64.000000,3523.589744,0.000000,0.000000,0.000000,4766.153846,0.000000,4270.769231,0.000000,0.000000,5615.384615,0.000000,0.000000,0.000000,4007.692308,8533.000000,7800.000000,15.766171,0.000000,0.000000,0.000000,0.000000,
65.000000,4076.410256,0.000000,0.000000,0.000000,4955.384615,0.000000,4575.897436,0.000000,0.000000,4492.307692,0.000000,0.000000,0.000000,4172.820513,8520.000000,7751.000000,15.773988,0.000000,0.000000,0.000000,0.000000,
66.000000,5210.769231,0.000000,0.000000,0.000000,5181.538462,0.000000,6015.897436,0.000000,0.000000,3696.923077,0.000000,0.000000,0.000000,4810.769231,8346.000000,7750.000000,15.781804,0.000000,0.000000,0.000000,0.000000,
67.000000,6234.871795,0.000000,0.000000,0.000000,5228.717949,0.000000,6894.358974,0.000000,0.000000,6206.666667,0.000000,0.000000,0.000000,5374.358974,8401.000000,8042.000000,15.789620,0.000000,0.000000,0.000000,0.000000,
68.000000,6574.358974,0.000000,0.000000,0.000000,5120.512821,0.000000,6958.974359,0.000000,0.000000,8323.589744,0.000000,0.000000,0.000000,5562.564103,8208.000000,8372.000000,15.797436,0.000000,0.000000,0.000000,0.000000,
69.000000,6907.179487,0.000000,0.000000,0.000000,5048.717949,0.000000,7067.179487,0.000000,0.000000,6855.897436,0.000000,0.000000,0.000000,5602.051282,8276.000000,8309.000000,15.805252,0.000000,0.000000,0.000000,0.000000,
70.000000,6964.102564,0.000000,0.000000,0.000000,4923.589744,0.000000,6870.256410,0.000000,0.000000,5593.333333,0.000000,0.000000,0.000000,5548.205128,8356.000000,7905.000000,15.813068,0.000000,0.000000,0.000000,0.000000,
71.000000,6733.333333,0.000000,0.000000,0.000000,4797.948718,0.000000,5875.384615,0.000000,0.000000,6570.769231,0.000000,0.000000,0.000000,5349.230769,8304.000000,7784.000000,15.820884,0.000000,0.000000,0.000000,0.000000,
72.000000,6374.871795,0.000000,0.000000,0.000000,4711.282051,0.000000,4883.589744,0.000000,0.000000,6738.461538,0.000000,0.000000,0.000000,5055.897436,8326.000000,7982.000000,15.828701,0.000000,0.000000,0.000000,0.000000,
73.000000,5740.512821,0.000000,0.000000,0.000000,4716.923077,0.000000,4519.487179,0.000000,0.000000,5989.230769,0.000000,0.000000,0.000000,4958.461538,8255.000000,8069.000000,15.836517,0.000000,0.000000,0.000000,0.000000,
74.000000,5065.128205,0.000000,0.000000,0.000000,4729.230769,0.000000,4019.487179,0.000000,0.000000,5881.538462,0.000000,0.000000,0.000000,4929.743590,8196.000000,8129.000000,15.844333,0.000000,0.000000,0.000000,0.000000,
75.000000,4923.076923,0.000000,0.000000,0.000000,4777.435897,0.000000,3752.307692,0.000000,0.000000,5545.128205,0.000000,0.000000,0.000000,4761.538462,8205.000000,8290.000000,15.852149,0.000000,0.000000,0.000000,0.000000,
76.000000,5176.923077,0.000000,0.000000,0.000000,4793.333333,0.000000,4194.871795,0.000000,0.000000,4972.307692,0.000000,0.000000,0.000000,4636.410256,8093.000000,8325.000000,15.859965,0.000000,0.000000,0.000000,0.000000,
77.000000,5019.487179,0.000000,0.000000,0.000000,4792.307692,0.000000,4348.205128,0.000000,0.000000,4630.256410,0.000000,0.000000,0.000000,4496.923077,8094.000000,8296.000000,15.867781,0.000000,0.000000,0.000000,0.000000,
78.000000,4893.846154,0.000000,0.000000,0.000000,4749.230769,0.000000,3924.615385,0.000000,0.000000,4551.282051,0.000000,0.000000,0.000000,4436.923077,8093.000000,8279.000000,15.875598,0.000000,0.000000,0.000000,0.000000,
79.000000,4617.948718,0.000000,0.000000,0.000000,4693.846154,0.000000,3875.384615,0.000000,0.000000,4389.743590,0.000000,0.000000,0.000000,4382.564103,8104.000000,8307.000000,15.883414,0.000000,0.000000,0.000000,0.000000,
80.000000,4484.102564,0.000000,0.000000,0.000000,4703.589744,0.000000,4229.230769,0.000000,0.000000,4335.384615,0.000000,0.000000,0.000000,4355.897436,8081.000000,8333.000000,15.891230,0.000000,0.000000,0.000000,0.000000,
81.000000,4398.461538,0.000000,0.000000,0.000000,4729.743590,0.000000,4225.128205,0.000000,0.000000,4357.435897,0.000000,0.000000,0.000000,4339.487179,8044.000000,8422.000000,15.899046,0.000000,0.000000,0.000000,0.000000,
82.000000,4263.589744,0.000000,0.000000,0.000000,4769.743590,0.000000,4072.307692,0.000000,0.000000,4353.333333,0.000000,0.000000,0.000000,4374.358974,8062.000000,8495.000000,15.906862,0.000000,0.000000,0.000000,0.000000,
83.000000,4381.538462,0.000000,0.000000,0.000000,4743.589744,0.000000,4204.102564,0.000000,0.000000,4353.333333,0.000000,0.000000,0.000000,4348.717949,8052.000000,8550.000000,15.914678,0.000000,0.000000,0.000000,0.000000,
84.000000,4475.384615,0.000000,0.000000,0.000000,4708.717949,0.000000,4296.410256,0.000000,0.000000,4301.538462,0.000000,0.000000,0.000000,4323.076923,8058.000000,8491.000000,15.922495,0.000000,0.000000,0.000000,0.000000,
85.000000,4393.333333,0.000000,0.000000,0.000000,4748.205128,0.000000,4162.051282,0.000000,0.000000,4238.461538,0.000000,0.000000,0.000000,4295.384615,8085.000000,8415.000000,15.930311,0.000000,0.000000,0.000000,0.000000,
86.000000,4221.538462,0.000000,0.000000,0.000000,4765.641026,0.000000,4133.333333,0.000000,0.000000,4266.666667,0.000000,0.000000,0.000000,4352.307692,8117.000000,8283.000000,15.938127,0.000000,0.000000,0.000000,0.000000,
87.000000,3875.897436,0.000000,0.000000,0.000000,4726.153846,0.000000,4263.076923,0.000000,0.000000,4251.282051,0.000000,0.000000,0.000000,4346.153846,8139.000000,8250.000000,15.945943,0.000000,0.000000,0.000000,0.000000,
88.000000,3689.230769,0.000000,0.000000,0.000000,4742.564103,0.000000,4281.538462,0.000000,0.000000,4210.256410,0.000000,0.000000,0.000000,4348.205128,8140.000000,8269.000000,15.953759,0.000000,0.000000,0.000000,0.000000,
89.000000,3691.794872,0.000000,0.000000,0.000000,4751.794872,0.000000,4173.846154,0.000000,0.000000,4185.128205,0.000000,0.000000,0.000000,4341.025641,8165.000000,8310.000000,15.961575,0.000000,0.000000,0.000000,0.000000,
90.000000,3852.820513,0.000000,0.000000,0.000000,4743.076923,0.000000,4212.307692,0.000000,0.000000,4207.692308,0.000000,0.000000,0.000000,4289.743590,8158.000000,8320.000000,15.969392,0.000000,0.000000,0.000000,0.000000,
91.000000,4007.692308,0.000000,0.000000,0.000000,4712.307692,0.000000,4262.564103,0.000000,0.000000,4182.564103,0.000000,0.000000,0.000000,4234.871795,8189.000000,8217.000000,15.977208,0.000000,0.000000,0.000000,0.000000,
92.000000,4122.051282,0.000000,0.000000,0.000000,4725.641026,0.000000,4198.974359,0.000000,0.000000,4161.538462,0.000000,0.000000,0.000000,4245.128205,8219.000000,8126.000000,15.985024,0.000000,0.000000,0.000000,0.000000,
93.000000,4311.794872,0.000000,0.000000,0.000000,4740.000000,0.000000,4155.384615,0.000000,0.000000,4151.794872,0.000000,0.000000,0.000000,4255.897436,8254.000000,8017.000000,15.992840,0.000000,0.000000,0.000000,0.000000,
94.000000,4437.435897,0.000000,0.000000,0.000000,4746.666667,0.000000,4212.820513,0.000000,0.000000,4119.487179,0.000000,0.000000,0.000000,4218.974359,8251.000000,8020.000000,16.000656,0.000000,0.000000,0.000000,0.000000,
95.000000,4236.410256,0.000000,0.000000,0.000000,4728.717949,0.000000,4218.461538,0.000000,0.000000,4144.615385,0.000000,0.000000,0.000000,4258.461538,8289.000000,8056.000000,16.008472,0.000000,0.000000,0.000000,0.000000,
96.000000,4032.820513,0.000000,0.000000,0.000000,4734.358974,0.000000,4176.410256,0.000000,0.000000,4162.564103,0.000000,0.000000,0.000000,4287.179487,8294.000000,8077.000000,16.016289,0.000000,0.000000,0.000000,0.000000,
97.000000,4179.487179,0.000000,0.000000,0.000000,4744.615385,0.000000,4149.743590,0.000000,0.000000,4104.615385,0.000000,0.000000,0.000000,4284.615385,8292.000000,8092.000000,16.024105,0.000000,0.000000,0.000000,0.000000,
98.000000,4309.743590,0.000000,0.000000,0.000000,4769.230769,0.000000,4213.333333,0.000000,0.000000,4091.794872,0.000000,0.000000,0.000000,4253.333333,8296.000000,8071.000000,16.031921,0.000000,0.000000,0.000000,0.000000,
99.000000,4406.666667,0.000000,0.000000,0.000000,4762.564103,0.000000,4347.692308,0.000000,0.000000,4300.000000,0.000000,0.000000,0.000000,4334.358974,8276.000000,8042.000000,16.039737,0.000000,0.000000,0.000000,0.000000,
100.000000,4516.923077,0.000000,0.000000,0.000000,4722.564103,0.000000,4307.692308,0.000000,0.000000,4282.051282,0.000000,0.000000,0.000000,4316.410256,8255.000000,8064.000000,16.047553,0.000000,0.000000,0.000000,0.000000,
101.000000,4622.564103,0.000000,0.000000,0.000000,4714.871795,0.000000,4175.897436,0.000000,0.000000,4061.538462,0.000000,0.000000,0.000000,4208.205128,8227.000000,8087.000000,16.055369,0.000000,0.000000,0.000000,0.000000,
102.000000,4687.179487,0.000000,0.000000,0.000000,4729.743590,0.000000,4174.358974,0.000000,0.000000,4023.076923,0.000000,0.000000,0.000000,4147.692308,8204.000000,8139.000000,16.063186,0.000000,0.000000,0.000000,0.000000,
103.000000,4709.230769,0.000000,0.000000,0.000000,4737.435897,0.000000,4205.641026,0.000000,0.000000,4145.128205,0.000000,0.000000,0.000000,4223.076923,8202.000000,8169.000000,16.071002,0.000000,0.000000,0.000000,0.000000,
104.000000,4575.897436,0.000000,0.000000,0.000000,4714.871795,0.000000,4150.256410,0.000000,0.000000,4020.000000,0.000000,0.000000,0.000000,4173.846154,8159.000000,8225.000000,16.078818,0.000000,0.000000,0.000000,0.000000,
105.000000,4490.769231,0.000000,0.000000,0.000000,4694.358974,0.000000,4165.641026,0.000000,0.000000,3958.461538,0.000000,0.000000,0.000000,4162.051282,8155.000000,8271.000000,16.086634,0.000000,0.000000,0.000000,0.000000,
106.000000,4436.923077,0.000000,0.000000,0.000000,4691.794872,0.000000,4200.512821,0.000000,0.000000,4045.128205,0.000000,0.000000,0.000000,4212.307692,8149.000000,8296.000000,16.094450,0.000000,0.000000,0.000000,0.000000,
107.000000,4425.128205,0.000000,0.000000,0.000000,4745.641026,0.000000,4173.333333,0.000000,0.000000,4083.076923,0.000000,0.000000,0.000000,4224.102564,8124.000000,8308.000000,16.102266,0.000000,0.000000,0.000000,0.000000,
108.000000,4394.358974,0.000000,0.000000,0.000000,4741.538462,0.000000,4171.794872,0.000000,0.000000,4030.769231,0.000000,0.000000,0.000000,4168.205128,8121.000000,8327.000000,16.110083,0.000000,0.000000,0.000000,0.000000,
109.000000,4381.538462,0.000000,0.000000,0.000000,4712.820513,0.000000,4238.461538,0.000000,0.000000,4060.000000,0.000000,0.000000,0.000000,4185.641026,8098.000000,8346.000000,16.117899,0.000000,0.000000,0.000000,0.000000,
110.000000,4364.615385,0.000000,0.000000,0.000000,4700.000000,0.000000,4257.435897,0.000000,0.000000,4146.153846,0.000000,0.000000,0.000000,4249.230769,8093.000000,8355.000000,16.125715,0.000000,0.000000,0.000000,0.000000,
111.000000,4325.128205,0.000000,0.000000,0.000000,4724.102564,0.000000,4263.589744,0.000000,0.000000,4166.666667,0.000000,0.000000,0.000000,4260.512821,8082.000000,8379.000000,16.133531,0.000000,0.000000,0.000000,0.000000,
112.000000,4199.487179,0.000000,0.000000,0.000000,4741.538462,0.000000,4268.717949,0.000000,0.000000,4096.923077,0.000000,0.000000,0.000000,4227.692308,8086.000000,8377.000000,16.141347,0.000000,0.000000,0.000000,0.000000,
113.000000,4087.179487,0.000000,0.000000,0.000000,4735.897436,0.000000,4284.615385,0.000000,0.000000,4081.538462,0.000000,0.000000,0.000000,4209.230769,8098.000000,8362.000000,16.149163,0.000000,0.000000,0.000000,0.000000,
114.000000,4064.102564,0.000000,0.000000,0.000000,4708.717949,0.000000,4267.179487,0.000000,0.000000,4206.666667,0.000000,0.000000,0.000000,4292.820513,8110.000000,8345.000000,16.156980,0.000000,0.000000,0.000000,0.000000,
115.000000,4023.076923,0.000000,0.000000,0.000000,4738.461538,0.000000,4256.410256,0.000000,0.000000,4234.358974,0.000000,0.000000,0.000000,4313.333333,8117.000000,8329.000000,16.164796,0.000000,0.000000,0.000000,0.000000,
116.000000,4007.179487,0.000000,0.000000,0.000000,4764.615385,0.000000,4265.128205,0.000000,0.000000,4144.615385,0.000000,0.000000,0.000000,4268.205128,8140.000000,8301.000000,16.172612,0.000000,0.000000,0.000000,0.000000,
117.000000,3989.743590,0.000000,0.000000,0.000000,4743.076923,0.000000,4260.512821,0.000000,0.000000,4099.487179,0.000000,0.000000,0.000000,4189.743590,8149.000000,8271.000000,16.180428,0.000000,0.000000,0.000000,0.000000,
118.000000,4023.076923,0.000000,0.000000,0.000000,4741.025641,0.000000,4243.076923,0.000000,0.000000,4231.794872,0.000000,0.000000,0.000000,4244.615385,8178.000000,8229.000000,16.188244,0.000000,0.000000,0.000000,0.000000,
119.000000,4055.897436,0.000000,0.000000,0.000000,4764.102564,0.000000,4226.153846,0.000000,0.000000,4250.769231,0.000000,0.000000,0.000000,4279.487179,8190.000000,8213.000000,16.196060,0.000000,0.000000,0.000000,0.000000,
120.000000,4077.435897,0.000000,0.000000,0.000000,4740.512821,0.000000,4222.051282,0.000000,0.000000,4138.974359,0.000000,0.000000,0.000000,4252.820513,8208.000000,8189.000000,16.203877,0.000000,0.000000,0.000000,0.000000,
121.000000,3931.282051,0.000000,0.000000,0.000000,4722.564103,0.000000,4218.461538,0.000000,0.000000,4032.307692,0.000000,0.000000,0.000000,4172.307692,8226.000000,8178.000000,16.211693,0.000000,0.000000,0.000000,0.000000,
122.000000,3974.358974,0.000000,0.000000,0.000000,4758.974359,0.000000,4235.897436,0.000000,0.000000,4111.794872,0.000000,0.000000,0.000000,4242.051282,8224.000000,8155.000000,16.219509,0.000000,0.000000,0.000000,0.000000,
123.000000,4200.512821,0.000000,0.000000,0.000000,4769.230769,0.000000,4238.461538,0.000000,0.000000,4146.153846,0.000000,0.000000,0.000000,4275.384615,8253.000000,8123.000000,16.227325,0.000000,0.000000,0.000000,0.000000,
124.000000,4373.333333,0.000000,0.000000,0.000000,4769.743590,0.000000,4234.358974,0.000000,0.000000,4087.692308,0.000000,0.000000,0.000000,4201.538462,8243.000000,8106.000000,16.235141,0.000000,0.000000,0.000000,0.000000,
125.000000,4320.512821,0.000000,0.000000,0.000000,4747.692308,0.000000,4204.102564,0.000000,0.000000,4033.333333,0.000000,0.000000,0.000000,4138.974359,8246.000000,8082.000000,16.242957,0.000000,0.000000,0.000000,0.000000,
126.000000,4241.025641,0.000000,0.000000,0.000000,4726.666667,0.000000,4190.256410,0.000000,0.000000,4122.051282,0.000000,0.000000,0.000000,4214.358974,8240.000000,8085.000000,16.250774,0.000000,0.000000,0.000000,0.000000,
127.000000,4149.743590,0.000000,0.000000,0.000000,4695.897436,0.000000,4190.769231,0.000000,0.000000,4150.769231,0.000000,0.000000,0.000000,4254.871795,8241.000000,8097.000000,16.258590,0.000000,0.000000,0.000000,0.000000,
128.000000,4140.000000,0.000000,0.000000,0.000000,4724.102564,0.000000,4238.974359,0.000000,0.000000,4073.333333,0.000000,0.000000,0.000000,4230.769231,8246.000000,8107.000000,16.266406,0.000000,0.000000,0.000000,0.000000,
0.000000,4371.282051,0.000000,0.000000,0.000000,4749.743590,0.000000,4265.641026,0.000000,0.000000,4041.538462,0.000000,0.000000,0.000000,4222.051282,8225.000000,8145.000000,16.274222,0.000000,0.000000,0.000000,0.000000,
1.000000,4673.846154,0.000000,0.000000,0.000000,4756.923077,0.000000,4281.025641,0.000000,0.000000,4112.820513,0.000000,0.000000,0.000000,4196.410256,8225.000000,8163.000000,16.282038,0.000000,0.000000,0.000000,0.000000,
2.000000,4744.102564,0.000000,0.000000,0.000000,4728.717949,0.000000,4277.435897,0.000000,0.000000,4161.538462,0.000000,0.000000,0.000000,4173.333333,8217.000000,8167.000000,16.289854,0.000000,0.000000,0.000000,0.000000,
3.000000,4646.666667,0.000000,0.000000,0.000000,4711.282051,0.000000,4255.897436,0.000000,0.000000,4096.923077,0.000000,0.000000,0.000000,4161.538462,8185.000000,8187.000000,16.297670,0.000000,0.000000,0.000000,0.000000,
4.000000,4563.076923,0.000000,0.000000,0.000000,4696.923077,0.000000,4216.410256,0.000000,0.000000,4044.615385,0.000000,0.000000,0.000000,4194.358974,8172.000000,8203.000000,16.305487,0.000000,0.000000,0.000000,0.000000,
5.000000,4427.179487,0.000000,0.000000,0.000000,4685.128205,0.000000,4210.769231,0.000000,0.000000,4042.564103,0.000000,0.000000,0.000000,4216.410256,8142.000000,8235.000000,16.313303,0.000000,0.000000,0.000000,0.000000,
6.000000,4290.769231,0.000000,0.000000,0.000000,4688.717949,0.000000,4230.256410,0.000000,0.000000,4098.974359,0.000000,0.000000,0.000000,4269.230769,8147.000000,8258.000000,16.321119,0.000000,0.000000,0.000000,0.000000,
7.000000,4229.230769,0.000000,0.000000,0.000000,4737.948718,0.000000,4221.025641,0.000000,0.000000,4070.256410,0.000000,0.000000,0.000000,4223.589744,8137.000000,8293.000000,16.328935,0.000000,0.000000,0.000000,0.000000,
8.000000,4265.641026,0.000000,0.000000,0.000000,4766.666667,0.000000,4188.205128,0.000000,0.000000,4056.923077,0.000000,0.000000,0.000000,4203.589744,8130.000000,8318.000000,16.336751,0.000000,0.000000,0.000000,0.000000,
9.000000,4289.743590,0.000000,0.000000,0.000000,4722.564103,0.000000,4181.538462,0.000000,0.000000,4076.923077,0.000000,0.000000,0.000000,4193.333333,8132.000000,8327.000000,16.344567,0.000000,0.000000,0.000000,0.000000,
10.000000,4374.871795,0.000000,0.000000,0.000000,4686.153846,0.000000,4193.846154,0.000000,0.000000,4151.794872,0.000000,0.000000,0.000000,4226.666667,8117.000000,8331.000000,16.352384,0.000000,0.000000,0.000000,0.000000,
11.000000,4315.897436,0.000000,0.000000,0.000000,4714.358974,0.000000,4163.589744,0.000000,0.000000,4065.641026,0.000000,0.000000,0.000000,4171.282051,8128.000000,8330.000000,16.360200,0.000000,0.000000,0.000000,0.000000,
12.000000,4210.256410,0.000000,0.000000,0.000000,4754.871795,0.000000,4158.461538,0.000000,0.000000,3997.948718,0.000000,0.000000,0.000000,4163.589744,8112.000000,8317.000000,16.368016,0.000000,0.000000,0.000000,0.000000,
13.000000,4094.358974,0.000000,0.000000,0.000000,4732.820513,0.000000,4195.384615,0.000000,0.000000,4057.435897,0.000000,0.000000,0.000000,4197.435897,8114.000000,8314.000000,16.375832,0.000000,0.000000,0.000000,0.000000,
14.000000,4048.205128,0.000000,0.000000,0.000000,4733.846154,0.000000,4238.461538,0.000000,0.000000,4166.153846,0.000000,0.000000,0.000000,4271.794872,8125.000000,8304.000000,16.383648,0.000000,0.000000,0.000000,0.000000,
15.000000,3981.025641,0.000000,0.000000,0.000000,4741.025641,0.000000,4242.564103,0.000000,0.000000,4118.461538,0.000000,0.000000,0.000000,4255.384615,8133.000000,8297.000000,16.391464,0.000000,0.000000,0.000000,0.000000,
16.000000,3977.435897,0.000000,0.000000,0.000000,4754.871795,0.000000,4256.410256,0.000000,0.000000,4086.666667,0.000000,0.000000,0.000000,4210.256410,8155.000000,8278.000000,16.399281,0.000000,0.000000,0.000000,0.000000,
17.000000,3969.230769,0.000000,0.000000,0.000000,4762.564103,0.000000,4244.615385,0.000000,0.000000,4133.333333,0.000000,0.000000,0.000000,4208.717949,8158.000000,8261.000000,16.407097,0.000000,0.000000,0.000000,0.000000,
18.000000,4015.897436,0.000000,0.000000,0.000000,4774.358974,0.000000,4235.384615,0.000000,0.000000,4170.769231,0.000000,0.000000,0.000000,4235.384615,8159.000000,8239.000000,16.414913,0.000000,0.000000,0.000000,0.000000,
19.000000,4128.717949,0.000000,0.000000,0.000000,4756.410256,0.000000,4235.897436,0.000000,0.000000,4118.974359,0.000000,0.000000,0.000000,4222.564103,8184.000000,8206.000000,16.422729,0.000000,0.000000,0.000000,0.000000,
20.000000,4179.487179,0.000000,0.000000,0.000000,4775.897436,0.000000,4245.641026,0.000000,0.000000,4045.128205,0.000000,0.000000,0.000000,4177.435897,8190.000000,8187.000000,16.430545,0.000000,0.000000,0.000000,0.000000,
21.000000,4047.179487,0.000000,0.000000,0.000000,4755.897436,0.000000,4225.128205,0.000000,0.000000,4085.641026,0.000000,0.000000,0.000000,4196.410256,8216.000000,8165.000000,16.438361,0.000000,0.000000,0.000000,0.000000,
22.000000,3934.871795,0.000000,0.000000,0.000000,4726.666667,0.000000,4217.948718,0.000000,0.000000,4152.307692,0.000000,0.000000,0.000000,4241.538462,8217.000000,8166.000000,16.446178,0.000000,0.000000,0.000000,0.000000,
23.000000,4085.641026,0.000000,0.000000,0.000000,4749.230769,0.000000,4222.051282,0.000000,0.000000,4131.282051,0.000000,0.000000,0.000000,4282.564103,8228.000000,8147.000000,16.453994,0.000000,0.000000,0.000000,0.000000,
24.000000,4232.307692,0.000000,0.000000,0.000000,4773.846154,0.000000,4222.051282,0.000000,0.000000,4033.846154,0.000000,0.000000,0.000000,4188.717949,8238.000000,8140.000000,16.461810,0.000000,0.000000,0.000000,0.000000,
25.000000,4308.205128,0.000000,0.000000,0.000000,4731.794872,0.000000,4202.564103,0.000000,0.000000,4066.666667,0.000000,0.000000,0.000000,4137.435897,8225.000000,8123.000000,16.469626,0.000000,0.000000,0.000000,0.000000,
26.000000,4334.358974,0.000000,0.000000,0.000000,4709.743590,0.000000,4188.717949,0.000000,0.000000,4097.948718,0.000000,0.000000,0.000000,4150.256410,8229.000000,8128.000000,16.477442,0.000000,0.000000,0.000000,0.000000,
27.000000,4370.769231,0.000000,0.000000,0.000000,4732.307692,0.000000,4192.307692,0.000000,0.000000,4075.897436,0.000000,0.000000,0.000000,4207.692308,8234.000000,8125.000000,16.485258,0.000000,0.000000,0.000000,0.000000,
28.000000,4309.230769,0.000000,0.000000,0.000000,4738.461538,0.000000,4208.205128,0.000000,0.000000,3987.692308,0.000000,0.000000,0.000000,4173.333333,8214.000000,8129.000000,16.493075,0.000000,0.000000,0.000000,0.000000,
29.000000,4307.692308,0.000000,0.000000,0.000000,4750.769231,0.000000,4220.512821,0.000000,0.000000,4036.923077,0.000000,0.000000,0.000000,4195.384615,8215.000000,8140.000000,16.500891,0.000000,0.000000,0.000000,0.000000,
30.000000,4366.153846,0.000000,0.000000,0.000000,4749.743590,0.000000,4195.384615,0.000000,0.000000,4088.717949,0.000000,0.000000,0.000000,4168.717949,8209.000000,8176.000000,16.508707,0.000000,0.000000,0.000000,0.000000,
31.000000,4450.769231,0.000000,0.000000,0.000000,4726.153846,0.000000,4195.384615,0.000000,0.000000,4079.487179,0.000000,0.000000,0.000000,4163.589744,8201.000000,8196.000000,16.516523,0.000000,0.000000,0.000000,0.000000,
32.000000,4426.153846,0.000000,0.000000,0.000000,4708.717949,0.000000,4214.358974,0.000000,0.000000,4008.717949,0.000000,0.000000,0.000000,4170.769231,8173.000000,8213.000000,16.524339,0.000000,0.000000,0.000000,0.000000,
33.000000,4403.076923,0.000000,0.000000,0.000000,4748.717949,0.000000,4223.589744,0.000000,0.000000,4055.384615,0.000000,0.000000,0.000000,4186.153846,8171.000000,8217.000000,16.532155,0.000000,0.000000,0.000000,0.000000,
34.000000,4368.205128,0.000000,0.000000,0.000000,4745.641026,0.000000,4200.000000,0.000000,0.000000,4099.487179,0.000000,0.000000,0.000000,4161.025641,8164.000000,8226.000000,16.539972,0.000000,0.000000,0.000000,0.000000,
35.000000,4325.641026,0.000000,0.000000,0.000000,4724.102564,0.000000,4215.897436,0.000000,0.000000,4067.692308,0.000000,0.000000,0.000000,4173.846154,8145.000000,8250.000000,16.547788,0.000000,0.000000,0.000000,0.000000,
36.000000,4237.948718,0.000000,0.000000,0.000000,4711.282051,0.000000,4221.025641,0.000000,0.000000,4026.666667,0.000000,0.000000,0.000000,4176.923077,8148.000000,8265.000000,16.555604,0.000000,0.000000,0.000000,0.000000,
37.000000,4220.512821,0.000000,0.000000,0.000000,4723.076923,0.000000,4236.923077,0.000000,0.000000,4063.076923,0.000000,0.000000,0.000000,4158.461538,8142.000000,8289.000000,16.563420,0.000000,0.000000,0.000000,0.000000,
38.000000,4247.179487,0.000000,0.000000,0.000000,4714.871795,0.000000,4249.230769,0.000000,0.000000,4120.000000,0.000000,0.000000,0.000000,4201.538462,8139.000000,8304.000000,16.571236,0.000000,0.000000,0.000000,0.000000,
39.000000,4266.666667,0.000000,0.000000,0.000000,4737.948718,0.000000,4244.615385,0.000000,0.000000,4102.051282,0.000000,0.000000,0.000000,4228.717949,8127.000000,8308.000000,16.579052,0.000000,0.000000,0.000000,0.000000,
40.000000,4264.102564,0.000000,0.000000,0.000000,4740.512821,0.000000,4215.384615,0.000000,0.000000,4075.384615,0.000000,0.000000,0.000000,4202.564103,8122.000000,8307.000000,16.586869,0.000000,0.000000,0.000000,0.000000,
41.000000,4215.897436,0.000000,0.000000,0.000000,4703.589744,0.000000,4233.333333,0.000000,0.000000,4098.461538,0.000000,0.000000,0.000000,4157.948718,8132.000000,8303.000000,16.594685,0.000000,0.000000,0.000000,0.000000,
42.000000,4204.615385,0.000000,0.000000,0.000000,4670.769231,0.000000,4269.230769,0.000000,0.000000,4176.923077,0.000000,0.000000,0.000000,4222.564103,8132.000000,8291.000000,16.602501,0.000000,0.000000,0.000000,0.000000,
43.000000,4184.615385,0.000000,0.000000,0.000000,4688.717949,0.000000,4267.692308,0.000000,0.000000,4146.666667,0.000000,0.000000,0.000000,4244.102564,8130.000000,8291.000000,16.610317,0.000000,0.000000,0.000000,0.000000,
44.000000,4131.282051,0.000000,0.000000,0.000000,4722.564103,0.000000,4268.205128,0.000000,0.000000,4101.538462,0.000000,0.000000,0.000000,4225.641026,8145.000000,8277.000000,16.618133,0.000000,0.000000,0.000000,0.000000,
45.000000,4000.000000,0.000000,0.000000,0.000000,4746.666667,0.000000,4270.769231,0.000000,0.000000,4111.282051,0.000000,0.000000,0.000000,4189.230769,8149.000000,8269.000000,16.625949,0.000000,0.000000,0.000000,0.000000,
46.000000,4011.794872,0.000000,0.000000,0.000000,4744.615385,0.000000,4252.307692,0.000000,0.000000,4173.333333,0.000000,0.000000,0.000000,4235.384615,8169.000000,8249.000000,16.633766,0.000000,0.000000,0.000000,0.000000,
47.000000,4075.384615,0.000000,0.000000,0.000000,4721.538462,0.000000,4247.179487,0.000000,0.000000,4094.871795,0.000000,0.000000,0.000000,4212.820513,8165.000000,8232.000000,16.641582,0.000000,0.000000,0.000000,0.000000,
48.000000,4110.769231,0.000000,0.000000,0.000000,4727.692308,0.000000,4290.769231,0.000000,0.000000,4064.615385,0.000000,0.000000,0.000000,4213.846154,8183.000000,8209.000000,16.649398,0.000000,0.000000,0.000000,0.000000,
49.000000,4067.692308,0.000000,0.000000,0.000000,4720.512821,0.000000,4287.179487,0.000000,0.000000,4098.461538,0.000000,0.000000,0.000000,4183.076923,8184.000000,8198.000000,16.657214,0.000000,0.000000,0.000000,0.000000,
50.000000,4134.871795,0.000000,0.000000,0.000000,4695.897436,0.000000,4258.461538,0.000000,0.000000,4132.307692,0.000000,0.000000,0.000000,4165.641026,8197.000000,8177.000000,16.665030,0.000000,0.000000,0.000000,0.000000,
51.000000,4156.410256,0.000000,0.000000,0.000000,4692.820513,0.000000,4258.461538,0.000000,0.000000,4056.410256,0.000000,0.000000,0.000000,4152.307692,8203.000000,8166.000000,16.672846,0.000000,0.000000,0.000000,0.000000,
52.000000,4129.230769,0.000000,0.000000,0.000000,4726.666667,0.000000,4273.846154,0.000000,0.000000,4052.820513,0.000000,0.000000,0.000000,4208.205128,8213.000000,8166.000000,16.680663,0.000000,0.000000,0.000000,0.000000,
53.000000,4101.025641,0.000000,0.000000,0.000000,4707.692308,0.000000,4253.846154,0.000000,0.000000,4110.256410,0.000000,0.000000,0.000000,4210.256410,8221.000000,8151.000000,16.688479,0.000000,0.000000,0.000000,0.000000,
54.000000,4180.000000,0.000000,0.000000,0.000000,4708.205128,0.000000,4273.333333,0.000000,0.000000,4151.282051,0.000000,0.000000,0.000000,4187.179487,8218.000000,8141.000000,16.696295,0.000000,0.000000,0.000000,0.000000,
55.000000,4256.923077,0.000000,0.000000,0.000000,4734.358974,0.000000,4265.128205,0.000000,0.000000,4127.692308,0.000000,0.000000,0.000000,4195.897436,8225.000000,8149.000000,16.704111,0.000000,0.000000,0.000000,0.000000,
56.000000,4284.615385,0.000000,0.000000,0.000000,4758.974359,0.000000,4235.384615,0.000000,0.000000,4109.230769,0.000000,0.000000,0.000000,4188.717949,8218.000000,8149.000000,16.711927,0.000000,0.000000,0.000000,0.000000,
57.000000,4323.076923,0.000000,0.000000,0.000000,4726.153846,0.000000,4215.384615,0.000000,0.000000,4128.205128,0.000000,0.000000,0.000000,4172.307692,8217.000000,8158.000000,16.719743,0.000000,0.000000,0.000000,0.000000,
58.000000,4389.230769,0.000000,0.000000,0.000000,4703.076923,0.000000,4230.769231,0.000000,0.000000,4121.538462,0.000000,0.000000,0.000000,4160.512821,8208.000000,8168.000000,16.727560,0.000000,0.000000,0.000000,0.000000,
59.000000,4424.102564,0.000000,0.000000,0.000000,4704.615385,0.000000,4235.384615,0.000000,0.000000,4120.000000,0.000000,0.000000,0.000000,4198.974359,8195.000000,8176.000000,16.735376,0.000000,0.000000,0.000000,0.000000,
60.000000,4373.846154,0.000000,0.000000,0.000000,4741.025641,0.000000,4231.282051,0.000000,0.000000,4123.076923,0.000000,0.000000,0.000000,4193.333333,8187.000000,8191.000000,16.743192,0.000000,0.000000,0.000000,0.000000,
61.000000,4335.384615,0.000000,0.000000,0.000000,4741.538462,0.000000,4209.230769,0.000000,0.000000,4156.923077,0.000000,0.000000,0.000000,4206.153846,8177.000000,8201.000000,16.751008,0.000000,0.000000,0.000000,0.000000,
62.000000,4308.717949,0.000000,0.000000,0.000000,4710.769231,0.000000,4211.282051,0.000000,0.000000,4136.923077,0.000000,0.000000,0.000000,4190.769231,8170.000000,8220.000000,16.758824,0.000000,0.000000,0.000000,0.000000,
63.000000,4326.666667,0.000000,0.000000,0.000000,4704.102564,0.000000,4250.769231,0.000000,0.000000,4129.230769,0.000000,0.000000,0.000000,4214.358974,8164.000000,8231.000000,16.766640,0.000000,0.000000,0.000000,0.000000,
64.000000,4302.564103,0.000000,0.000000,0.000000,4728.205128,0.000000,4257.948718,0.000000,0.000000,4084.102564,0.000000,0.000000,0.000000,4178.974359,8154.000000,8254.000000,16.774456,0.000000,0.000000,0.000000,0.000000,
65.000000,4332.820513,0.000000,0.000000,0.000000,4747.692308,0.000000,4245.641026,0.000000,0.000000,4091.794872,0.000000,0.000000,0.000000,4181.538462,8152.000000,8257.000000,16.782273,0.000000,0.000000,0.000000,0.000000,
66.000000,4308.717949,0.000000,0.000000,0.000000,4724.615385,0.000000,4250.256410,0.000000,0.000000,4081.025641,0.000000,0.000000,0.000000,4176.923077,8145.000000,8275.000000,16.790089,0.000000,0.000000,0.000000,0.000000,
67.000000,4287.179487,0.000000,0.000000,0.000000,4713.846154,0.000000,4266.666667,0.000000,0.000000,4114.871795,0.000000,0.000000,0.000000,4198.461538,8143.000000,8284.000000,16.797905,0.000000,0.000000,0.000000,0.000000,
68.000000,4250.769231,0.000000,0.000000,0.000000,4720.000000,0.000000,4252.307692,0.000000,0.000000,4101.025641,0.000000,0.000000,0.000000,4162.051282,8142.000000,8281.000000,16.805721,0.000000,0.000000,0.000000,0.000000,
69.000000,4248.717949,0.000000,0.000000,0.000000,4735.384615,0.000000,4242.051282,0.000000,0.000000,4109.743590,0.000000,0.000000,0.000000,4181.538462,8137.000000,8282.000000,16.813537,0.000000,0.000000,0.000000,0.000000,
70.000000,4155.897436,0.000000,0.000000,0.000000,4713.333333,0.000000,4229.743590,0.000000,0.000000,4135.384615,0.000000,0.000000,0.000000,4205.641026,8141.000000,8284.000000,16.821353,0.000000,0.000000,0.000000,0.000000,
71.000000,4125.641026,0.000000,0.000000,0.000000,4700.000000,0.000000,4237.948718,0.000000,0.000000,4185.128205,0.000000,0.000000,0.000000,4210.769231,8144.000000,8278.000000,16.829170,0.000000,0.000000,0.000000,0.000000,
72.000000,4132.820513,0.000000,0.000000,0.000000,4698.461538,0.000000,4242.051282,0.000000,0.000000,4148.205128,0.000000,0.000000,0.000000,4173.333333,8149.000000,8276.000000,16.836986,0.000000,0.000000,0.000000,0.000000,
73.000000,4129.230769,0.000000,0.000000,0.000000,4728.717949,0.000000,4272.820513,0.000000,0.000000,4110.769231,0.000000,0.000000,0.000000,4171.282051,8155.000000,8262.000000,16.844802,0.000000,0.000000,0.000000,0.000000,
74.000000,4133.333333,0.000000,0.000000,0.000000,4711.282051,0.000000,4273.846154,0.000000,0.000000,4123.076923,0.000000,0.000000,0.000000,4206.666667,8154.000000,8251.000000,16.852618,0.000000,0.000000,0.000000,0.000000,
75.000000,4166.666667,0.000000,0.000000,0.000000,4700.000000,0.000000,4272.307692,0.000000,0.000000,4139.487179,0.000000,0.000000,0.000000,4231.282051,8153.000000,8239.000000,16.860434,0.000000,0.000000,0.000000,0.000000,
76.000000,4127.692308,0.000000,0.000000,0.000000,4703.076923,0.000000,4276.410256,0.000000,0.000000,4165.128205,0.000000,0.000000,0.000000,4234.358974,8168.000000,8226.000000,16.868250,0.000000,0.000000,0.000000,0.000000,
77.000000,4085.641026,0.000000,0.000000,0.000000,4697.948718,0.000000,4282.564103,0.000000,0.000000,4168.205128,0.000000,0.000000,0.000000,4191.282051,8173.000000,8212.000000,16.876067,0.000000,0.000000,0.000000,0.000000,
78.000000,4128.205128,0.000000,0.000000,0.000000,4678.461538,0.000000,4266.153846,0.000000,0.000000,4164.615385,0.000000,0.000000,0.000000,4223.076923,8185.000000,8198.000000,16.883883,0.000000,0.000000,0.000000,0.000000,
79.000000,4124.615385,0.000000,0.000000,0.000000,4710.256410,0.000000,4273.333333,0.000000,0.000000,4137.435897,0.000000,0.000000,0.000000,4240.512821,8187.000000,8192.000000,16.891699,0.000000,0.000000,0.000000,0.000000,
80.000000,4153.333333,0.000000,0.000000,0.000000,4738.461538,0.000000,4287.179487,0.000000,0.000000,4143.589744,0.000000,0.000000,0.000000,4232.820513,8194.000000,8180.000000,16.899515,0.000000,0.000000,0.000000,0.000000,
81.000000,4197.435897,0.000000,0.000000,0.000000,4742.051282,0.000000,4269.230769,0.000000,0.000000,4111.794872,0.000000,0.000000,0.000000,4178.461538,8199.000000,8176.000000,16.907331,0.000000,0.000000,0.000000,0.000000,
82.000000,4250.256410,0.000000,0.000000,0.000000,4755.897436,0.000000,4241.538462,0.000000,0.000000,4149.743590,0.000000,0.000000,0.000000,4219.487179,8203.000000,8166.000000,16.915147,0.000000,0.000000,0.000000,0.000000,
83.000000,4240.000000,0.000000,0.000000,0.000000,4743.589744,0.000000,4218.461538,0.000000,0.000000,4164.615385,0.000000,0.000000,0.000000,4213.333333,8212.000000,8158.000000,16.922964,0.000000,0.000000,0.000000,0.000000,
84.000000,4289.230769,0.000000,0.000000,0.000000,4703.589744,0.000000,4227.179487,0.000000,0.000000,4175.897436,0.000000,0.000000,0.000000,4191.794872,8209.000000,8168.000000,16.930780,0.000000,0.000000,0.000000,0.000000,
85.000000,4263.589744,0.000000,0.000000,0.000000,4692.307692,0.000000,4242.051282,0.000000,0.000000,4142.564103,0.000000,0.000000,0.000000,4137.435897,8206.000000,8171.000000,16.938596,0.000000,0.000000,0.000000,0.000000,
86.000000,4232.820513,0.000000,0.000000,0.000000,4721.025641,0.000000,4251.282051,0.000000,0.000000,4156.923077,0.000000,0.000000,0.000000,4187.692308,8207.000000,8170.000000,16.946412,0.000000,0.000000,0.000000,0.000000,
87.000000,4248.717949,0.000000,0.000000,0.000000,4724.102564,0.000000,4248.717949,0.000000,0.000000,4131.282051,0.000000,0.000000,0.000000,4225.641026,8196.000000,8174.000000,16.954228,0.000000,0.000000,0.000000,0.000000,
88.000000,4322.051282,0.000000,0.000000,0.000000,4726.153846,0.000000,4256.410256,0.000000,0.000000,4118.461538,0.000000,0.000000,0.000000,4212.820513,8193.000000,8181.000000,16.962044,0.000000,0.000000,0.000000,0.000000,
89.000000,4280.512821,0.000000,0.000000,0.000000,4717.435897,0.000000,4233.333333,0.000000,0.000000,4082.564103,0.000000,0.000000,0.000000,4156.410256,8179.000000,8204.000000,16.969861,0.000000,0.000000,0.000000,0.000000,
90.000000,4352.307692,0.000000,0.000000,0.000000,4739.487179,0.000000,4236.923077,0.000000,0.000000,4114.358974,0.000000,0.000000,0.000000,4189.230769,8174.000000,8206.000000,16.977677,0.000000,0.000000,0.000000,0.000000,
91.000000,4494.358974,0.000000,0.000000,0.000000,4722.564103,0.000000,4248.205128,0.000000,0.000000,4171.282051,0.000000,0.000000,0.000000,4226.666667,8174.000000,8229.000000,16.985493,0.000000,0.000000,0.000000,0.000000,
92.000000,4438.974359,0.000000,0.000000,0.000000,4715.897436,0.000000,4254.358974,0.000000,0.000000,4169.230769,0.000000,0.000000,0.000000,4201.538462,8166.000000,8230.000000,16.993309,0.000000,0.000000,0.000000,0.000000,
93.000000,4256.410256,0.000000,0.000000,0.000000,4718.974359,0.000000,4236.410256,0.000000,0.000000,4112.307692,0.000000,0.000000,0.000000,4175.384615,8162.000000,8242.000000,17.001125,0.000000,0.000000,0.000000,0.000000,
94.000000,4252.820513,0.000000,0.000000,0.000000,4712.820513,0.000000,4250.769231,0.000000,0.000000,4111.794872,0.000000,0.000000,0.000000,4176.923077,8153.000000,8251.000000,17.008941,0.000000,0.000000,0.000000,0.000000,
95.000000,4292.307692,0.000000,0.000000,0.000000,4678.974359,0.000000,4258.461538,0.000000,0.000000,4175.384615,0.000000,0.000000,0.000000,4210.769231,8152.000000,8253.000000,17.016758,0.000000,0.000000,0.000000,0.000000,
96.000000,4213.333333,0.000000,0.000000,0.000000,4698.461538,0.000000,4273.333333,0.000000,0.000000,4145.641026,0.000000,0.000000,0.000000,4205.641026,8152.000000,8264.000000,17.024574,0.000000,0.000000,0.000000,0.000000,
97.000000,4188.717949,0.000000,0.000000,0.000000,4738.461538,0.000000,4284.102564,0.000000,0.000000,4095.384615,0.000000,0.000000,0.000000,4197.435897,8150.000000,8266.000000,17.032390,0.000000,0.000000,0.000000,0.000000,
98.000000,4206.666667,0.000000,0.000000,0.000000,4749.230769,0.000000,4277.948718,0.000000,0.000000,4096.923077,0.000000,0.000000,0.000000,4183.589744,8151.000000,8273.000000,17.040206,0.000000,0.000000,0.000000,0.000000,
99.000000,4263.589744,0.000000,0.000000,0.000000,4744.615385,0.000000,4270.769231,0.000000,0.000000,4170.256410,0.000000,0.000000,0.000000,4246.153846,8151.000000,8271.000000,17.048022,0.000000,0.000000,0.000000,0.000000,
100.000000,4222.051282,0.000000,0.000000,0.000000,4741.538462,0.000000,4259.487179,0.000000,0.000000,4144.615385,0.000000,0.000000,0.000000,4155.897436,8151.000000,8269.000000,17.055838,0.000000,0.000000,0.000000,0.000000,
101.000000,4133.846154,0.000000,0.000000,0.000000,4711.282051,0.000000,4240.000000,0.000000,0.000000,4120.000000,0.000000,0.000000,0.000000,4079.487179,8152.000000,8257.000000,17.063655,0.000000,0.000000,0.000000,0.000000,
102.000000,4085.128205,0.000000,0.000000,0.000000,4716.923077,0.000000,4244.615385,0.000000,0.000000,4127.179487,0.000000,0.000000,0.000000,4149.743590,8153.000000,8257.000000,17.071471,0.000000,0.000000,0.000000,0.000000,
103.000000,4182.051282,0.000000,0.000000,0.000000,4780.000000,0.000000,4282.051282,0.000000,0.000000,4182.051282,0.000000,0.000000,0.000000,4262.051282,8158.000000,8247.000000,17.079287,0.000000,0.000000,0.000000,0.000000,
104.000000,4177.435897,0.000000,0.000000,0.000000,4779.487179,0.000000,4272.820513,0.000000,0.000000,4136.923077,0.000000,0.000000,0.000000,4195.897436,8159.000000,8237.000000,17.087103,0.000000,0.000000,0.000000,0.000000,
105.000000,4129.230769,0.000000,0.000000,0.000000,4742.564103,0.000000,4255.384615,0.000000,0.000000,4124.615385,0.000000,0.000000,0.000000,4197.435897,8167.000000,8226.000000,17.094919,0.000000,0.000000,0.000000,0.000000,
106.000000,4083.589744,0.000000,0.000000,0.000000,4736.410256,0.000000,4256.410256,0.000000,0.000000,4145.128205,0.000000,0.000000,0.000000,4211.282051,8177.000000,8217.000000,17.102735,0.000000,0.000000,0.000000,0.000000,
107.000000,4135.897436,0.000000,0.000000,0.000000,4733.846154,0.000000,4259.487179,0.000000,0.000000,4193.333333,0.000000,0.000000,0.000000,4188.717949,8176.000000,8202.000000,17.110552,0.000000,0.000000,0.000000,0.000000,
108.000000,4213.333333,0.000000,0.000000,0.000000,4686.666667,0.000000,4245.641026,0.000000,0.000000,4163.076923,0.000000,0.000000,0.000000,4189.743590,8184.000000,8192.000000,17.118368,0.000000,0.000000,0.000000,0.000000,
109.000000,4144.615385,0.000000,0.000000,0.000000,4694.871795,0.000000,4263.589744,0.000000,0.000000,4130.769231,0.000000,0.000000,0.000000,4165.128205,8188.000000,8187.000000,17.126184,0.000000,0.000000,0.000000,0.000000,
110.000000,3989.230769,0.000000,0.000000,0.000000,4701.538462,0.000000,4267.692308,0.000000,0.000000,4120.512821,0.000000,0.000000,0.000000,4113.333333,8190.000000,8174.000000,17.134000,0.000000,0.000000,0.000000,0.000000,
111.000000,4084.102564,0.000000,0.000000,0.000000,4687.179487,0.000000,4276.410256,0.000000,0.000000,4124.102564,0.000000,0.000000,0.000000,4156.410256,8196.000000,8176.000000,17.141816,0.000000,0.000000,0.000000,0.000000,
112.000000,4277.948718,0.000000,0.000000,0.000000,4691.794872,0.000000,4273.846154,0.000000,0.000000,4130.256410,0.000000,0.000000,0.000000,4217.435897,8203.000000,8174.000000,17.149632,0.000000,0.000000,0.000000,0.000000,
113.000000,4303.589744,0.000000,0.000000,0.000000,4715.897436,0.000000,4266.666667,0.000000,0.000000,4138.974359,0.000000,0.000000,0.000000,4201.025641,8204.000000,8173.000000,17.157449,0.000000,0.000000,0.000000,0.000000,
114.000000,4304.102564,0.000000,0.000000,0.000000,4713.846154,0.000000,4253.333333,0.000000,0.000000,4176.923077,0.000000,0.000000,0.000000,4214.358974,8199.000000,8177.000000,17.165265,0.000000,0.000000,0.000000,0.000000,
115.000000,4364.615385,0.000000,0.000000,0.000000,4734.871795,0.000000,4259.487179,0.000000,0.000000,4173.846154,0.000000,0.000000,0.000000,4218.974359,8195.000000,8189.000000,17.173081,0.000000,0.000000,0.000000,0.000000,
116.000000,4355.384615,0.000000,0.000000,0.000000,4710.769231,0.000000,4262.564103,0.000000,0.000000,4148.205128,0.000000,0.000000,0.000000,4209.743590,8192.000000,8187.000000,17.180897,0.000000,0.000000,0.000000,0.000000,
117.000000,4343.076923,0.000000,0.000000,0.000000,4693.333333,0.000000,4271.794872,0.000000,0.000000,4119.487179,0.000000,0.000000,0.000000,4203.076923,8184.000000,8193.000000,17.188713,0.000000,0.000000,0.000000,0.000000,
118.000000,4387.179487,0.000000,0.000000,0.000000,4710.256410,0.000000,4271.794872,0.000000,0.000000,4159.487179,0.000000,0.000000,0.000000,4245.128205,8184.000000,8199.000000,17.196529,0.000000,0.000000,0.000000,0.000000,
119.000000,4296.923077,0.000000,0.000000,0.000000,4711.794872,0.000000,4254.358974,0.000000,0.000000,4132.307692,0.000000,0.000000,0.000000,4185.641026,8174.000000,8211.000000,17.204345,0.000000,0.000000,0.000000,0.000000,
120.000000,4286.153846,0.000000,0.000000,0.000000,4713.846154,0.000000,4256.410256,0.000000,0.000000,4129.743590,0.000000,0.000000,0.000000,4180.512821,8170.000000,8223.000000,17.212162,0.000000,0.000000,0.000000,0.000000,
121.000000,4332.820513,0.000000,0.000000,0.000000,4724.102564,0.000000,4268.717949,0.000000,0.000000,4131.794872,0.000000,0.000000,0.000000,4184.615385,8167.000000,8238.000000,17.219978,0.000000,0.000000,0.000000,0.000000,
122.000000,4312.307692,0.000000,0.000000,0.000000,4713.333333,0.000000,4278.461538,0.000000,0.000000,4166.153846,0.000000,0.000000,0.000000,4212.307692,8164.000000,8238.000000,17.227794,0.000000,0.000000,0.000000,0.000000,
123.000000,4114.871795,0.000000,0.000000,0.000000,4691.282051,0.000000,4277.948718,0.000000,0.000000,4126.666667,0.000000,0.000000,0.000000,4153.846154,8159.000000,8252.000000,17.235610,0.000000,0.000000,0.000000,0.000000,
124.000000,4136.410256,0.000000,0.000000,0.000000,4752.307692,0.000000,4297.948718,0.000000,0.000000,4139.487179,0.000000,0.000000,0.000000,4179.487179,8150.000000,8253.000000,17.243426,0.000000,0.000000,0.000000,0.000000,
125.000000,4232.820513,0.000000,0.000000,0.000000,4757.435897,0.000000,4271.794872,0.000000,0.000000,4156.410256,0.000000,0.000000,0.000000,4200.512821,8155.000000,8255.000000,17.251242,0.000000,0.000000,0.000000,0.000000,
126.000000,4243.589744,0.000000,0.000000,0.000000,4716.410256,0.000000,4252.820513,0.000000,0.000000,4177.948718,0.000000,0.000000,0.000000,4210.769231,8151.000000,8259.000000,17.259059,0.000000,0.000000,0.000000,0.000000,
127.000000,4155.897436,0.000000,0.000000,0.000000,4703.589744,0.000000,4262.564103,0.000000,0.000000,4157.435897,0.000000,0.000000,0.000000,4209.230769,8150.000000,8259.000000,17.266875,0.000000,0.000000,0.000000,0.000000,
128.000000,4160.000000,0.000000,0.000000,0.000000,4739.487179,0.000000,4286.666667,0.000000,0.000000,4142.564103,0.000000,0.000000,0.000000,4212.820513,8162.000000,8256.000000,17.274691,0.000000,0.000000,0.000000,0.000000,
0.000000,4190.256410,0.000000,0.000000,0.000000,4723.589744,0.000000,4281.538462,0.000000,0.000000,4140.512821,0.000000,0.000000,0.000000,4205.128205,8155.000000,8257.000000,17.282507,0.000000,0.000000,0.000000,0.000000,
1.000000,4175.384615,0.000000,0.000000,0.000000,4710.769231,0.000000,4310.256410,0.000000,0.000000,4151.282051,0.000000,0.000000,0.000000,4189.230769,8160.000000,8258.000000,17.290323,0.000000,0.000000,0.000000,0.000000,
2.000000,4182.564103,0.000000,0.000000,0.000000,4731.794872,0.000000,4323.076923,0.000000,0.000000,4148.717949,0.000000,0.000000,0.000000,4200.512821,8161.000000,8249.000000,17.298139,0.000000,0.000000,0.000000,0.000000,
3.000000,4202.051282,0.000000,0.000000,0.000000,4733.333333,0.000000,4306.153846,0.000000,0.000000,4106.153846,0.000000,0.000000,0.000000,4191.282051,8157.000000,8238.000000,17.305956,0.000000,0.000000,0.000000,0.000000,
4.000000,4183.076923,0.000000,0.000000,0.000000,4694.358974,0.000000,4295.897436,0.000000,0.000000,4141.538462,0.000000,0.000000,0.000000,4212.307692,8166.000000,8232.000000,17.313772,0.000000,0.000000,0.000000,0.000000,
5.000000,4128.205128,0.000000,0.000000,0.000000,4720.512821,0.000000,4300.000000,0.000000,0.000000,4208.717949,0.000000,0.000000,0.000000,4204.102564,8167.000000,8225.000000,17.321588,0.000000,0.000000,0.000000,0.000000,
6.000000,4165.128205,0.000000,0.000000,0.000000,4757.435897,0.000000,4282.564103,0.000000,0.000000,4237.948718,0.000000,0.000000,0.000000,4221.025641,8177.000000,8211.000000,17.329404,0.000000,0.000000,0.000000,0.000000,
7.000000,4171.282051,0.000000,0.000000,0.000000,4734.358974,0.000000,4263.076923,0.000000,0.000000,4178.461538,0.000000,0.000000,0.000000,4199.487179,8185.000000,8208.000000,17.337220,0.000000,0.000000,0.000000,0.000000,
8.000000,4196.923077,0.000000,0.000000,0.000000,4697.435897,0.000000,4260.512821,0.000000,0.000000,4165.128205,0.000000,0.000000,0.000000,4211.282051,8181.000000,8200.000000,17.345036,0.000000,0.000000,0.000000,0.000000,
9.000000,4216.410256,0.000000,0.000000,0.000000,4694.358974,0.000000,4265.128205,0.000000,0.000000,4151.794872,0.000000,0.000000,0.000000,4196.923077,8183.000000,8198.000000,17.352853,0.000000,0.000000,0.000000,0.000000,
10.000000,4241.538462,0.000000,0.000000,0.000000,4704.615385,0.000000,4275.384615,0.000000,0.000000,4203.076923,0.000000,0.000000,0.000000,4227.179487,8182.000000,8197.000000,17.360669,0.000000,0.000000,0.000000,0.000000,
11.000000,4202.564103,0.000000,0.000000,0.000000,4702.051282,0.000000,4273.846154,0.000000,0.000000,4188.205128,0.000000,0.000000,0.000000,4186.666667,8185.000000,8194.000000,17.368485,0.000000,0.000000,0.000000,0.000000,
12.000000,4237.435897,0.000000,0.000000,0.000000,4704.615385,0.000000,4284.102564,0.000000,0.000000,4162.051282,0.000000,0.000000,0.000000,4186.666667,8183.000000,8188.000000,17.376301,0.000000,0.000000,0.000000,0.000000,
13.000000,4212.820513,0.000000,0.000000,0.000000,4707.692308,0.000000,4284.615385,0.000000,0.000000,4148.205128,0.000000,0.000000,0.000000,4199.487179,8189.000000,8190.000000,17.384117,0.000000,0.000000,0.000000,0.000000,
14.000000,4203.076923,0.000000,0.000000,0.000000,4747.692308,0.000000,4286.666667,0.000000,0.000000,4173.333333,0.000000,0.000000,0.000000,4229.230769,8189.000000,8186.000000,17.391933,0.000000,0.000000,0.000000,0.000000,
15.000000,4226.666667,0.000000,0.000000,0.000000,4751.282051,0.000000,4277.435897,0.000000,0.000000,4124.102564,0.000000,0.000000,0.000000,4197.948718,8189.000000,8191.000000,17.399750,0.000000,0.000000,0.000000,0.000000,
16.000000,4303.589744,0.000000,0.000000,0.000000,4722.051282,0.000000,4274.871795,0.000000,0.000000,4124.102564,0.000000,0.000000,0.000000,4185.128205,8185.000000,8194.000000,17.407566,0.000000,0.000000,0.000000,0.000000,
17.000000,4307.179487,0.000000,0.000000,0.000000,4678.974359,0.000000,4254.358974,0.000000,0.000000,4146.666667,0.000000,0.000000,0.000000,4176.410256,8183.000000,8198.000000,17.415382,0.000000,0.000000,0.000000,0.000000,
18.000000,4296.410256,0.000000,0.000000,0.000000,4691.282051,0.000000,4269.230769,0.000000,0.000000,4145.641026,0.000000,0.000000,0.000000,4172.820513,8181.000000,8211.000000,17.423198,0.000000,0.000000,0.000000,0.000000,
19.000000,4306.153846,0.000000,0.000000,0.000000,4708.717949,0.000000,4275.897436,0.000000,0.000000,4143.076923,0.000000,0.000000,0.000000,4191.794872,8176.000000,8216.000000,17.431014,0.000000,0.000000,0.000000,0.000000,
20.000000,4312.820513,0.000000,0.000000,0.000000,4716.923077,0.000000,4280.000000,0.000000,0.000000,4156.410256,0.000000,0.000000,0.000000,4206.666667,8173.000000,8220.000000,17.438830,0.000000,0.000000,0.000000,0.000000,
21.000000,4303.076923,0.000000,0.000000,0.000000,4704.102564,0.000000,4284.615385,0.000000,0.000000,4171.282051,0.000000,0.000000,0.000000,4211.282051,8169.000000,8232.000000,17.446647,0.000000,0.000000,0.000000,0.000000,
22.000000,4286.666667,0.000000,0.000000,0.000000,4730.769231,0.000000,4301.538462,0.000000,0.000000,4178.461538,0.000000,0.000000,0.000000,4201.025641,8159.000000,8231.000000,17.454463,0.000000,0.000000,0.000000,0.000000,
23.000000,4274.871795,0.000000,0.000000,0.000000,4751.794872,0.000000,4280.000000,0.000000,0.000000,4189.230769,0.000000,0.000000,0.000000,4233.333333,8163.000000,8232.000000,17.462279,0.000000,0.000000,0.000000,0.000000,
24.000000,4255.384615,0.000000,0.000000,0.000000,4734.358974,0.000000,4261.538462,0.000000,0.000000,4148.205128,0.000000,0.000000,0.000000,4199.487179,8164.000000,8242.000000,17.470095,0.000000,0.000000,0.000000,0.000000,
25.000000,4247.179487,0.000000,0.000000,0.000000,4695.384615,0.000000,4276.410256,0.000000,0.000000,4175.384615,0.000000,0.000000,0.000000,4182.564103,8162.000000,8252.000000,17.477911,0.000000,0.000000,0.000000,0.000000,
26.000000,4230.769231,0.000000,0.000000,0.000000,4689.743590,0.000000,4294.358974,0.000000,0.000000,4200.000000,0.000000,0.000000,0.000000,4196.923077,8157.000000,8247.000000,17.485727,0.000000,0.000000,0.000000,0.000000,
27.000000,4252.307692,0.000000,0.000000,0.000000,4710.769231,0.000000,4300.000000,0.000000,0.000000,4228.205128,0.000000,0.000000,0.000000,4238.461538,8154.000000,8250.000000,17.493544,0.000000,0.000000,0.000000,0.000000,
28.000000,4147.692308,0.000000,0.000000,0.000000,4735.897436,0.000000,4301.025641,0.000000,0.000000,4187.692308,0.000000,0.000000,0.000000,4136.410256,8156.000000,8315.000000,17.501360,0.000000,0.000000,0.000000,0.000000,
29.000000,4184.615385,0.000000,0.000000,0.000000,4724.102564,0.000000,4307.692308,0.000000,0.000000,4212.307692,0.000000,0.000000,0.000000,4216.923077,8159.000000,8249.000000,17.509176,0.000000,0.000000,0.000000,0.000000,
30.000000,4341.538462,0.000000,0.000000,0.000000,4682.051282,0.000000,4297.435897,0.000000,0.000000,4230.256410,0.000000,0.000000,0.000000,4368.717949,8157.000000,8248.000000,17.516992,0.000000,0.000000,0.000000,0.000000,
31.000000,4375.897436,0.000000,0.000000,0.000000,4703.589744,0.000000,4299.487179,0.000000,0.000000,4241.538462,0.000000,0.000000,0.000000,4326.666667,8161.000000,8244.000000,17.524808,0.000000,0.000000,0.000000,0.000000,
32.000000,4204.615385,0.000000,0.000000,0.000000,4720.000000,0.000000,4288.205128,0.000000,0.000000,4181.538462,0.000000,0.000000,0.000000,4154.358974,8162.000000,8238.000000,17.532624,0.000000,0.000000,0.000000,0.000000,
33.000000,4190.769231,0.000000,0.000000,0.000000,4691.794872,0.000000,4293.333333,0.000000,0.000000,4203.076923,0.000000,0.000000,0.000000,4198.461538,8166.000000,8225.000000,17.540441,0.000000,0.000000,0.000000,0.000000,
34.000000,4186.666667,0.000000,0.000000,0.000000,4651.282051,0.000000,4302.564103,0.000000,0.000000,4224.102564,0.000000,0.000000,0.000000,4241.538462,8170.000000,8220.000000,17.548257,0.000000,0.000000,0.000000,0.000000,
35.000000,4202.051282,0.000000,0.000000,0.000000,4680.512821,0.000000,4337.948718,0.000000,0.000000,4228.717949,0.000000,0.000000,0.000000,4222.051282,8173.000000,8216.000000,17.556073,0.000000,0.000000,0.000000,0.000000,
36.000000,4219.487179,0.000000,0.000000,0.000000,4724.615385,0.000000,4327.692308,0.000000,0.000000,4226.153846,0.000000,0.000000,0.000000,4233.846154,8173.000000,8216.000000,17.563889,0.000000,0.000000,0.000000,0.000000,
37.000000,4190.769231,0.000000,0.000000,0.000000,4740.512821,0.000000,4293.333333,0.000000,0.000000,4244.615385,0.000000,0.000000,0.000000,4234.358974,8178.000000,8205.000000,17.571705,0.000000,0.000000,0.000000,0.000000,
38.000000,4297.948718,0.000000,0.000000,0.000000,4709.743590,0.000000,4267.692308,0.000000,0.000000,4242.564103,0.000000,0.000000,0.000000,4297.435897,8178.000000,8199.000000,17.579521,0.000000,0.000000,0.000000,0.000000,
39.000000,4470.256410,0.000000,0.000000,0.000000,4703.076923,0.000000,4272.307692,0.000000,0.000000,4229.743590,0.000000,0.000000,0.000000,4389.230769,8181.000000,8202.000000,17.587338,0.000000,0.000000,0.000000,0.000000,
40.000000,4322.564103,0.000000,0.000000,0.000000,4688.205128,0.000000,4265.641026,0.000000,0.000000,4214.871795,0.000000,0.000000,0.000000,4243.076923,8183.000000,8197.000000,17.595154,0.000000,0.000000,0.000000,0.000000,
41.000000,4146.666667,0.000000,0.000000,0.000000,4700.512821,0.000000,4288.717949,0.000000,0.000000,4179.487179,0.000000,0.000000,0.000000,4089.743590,8186.000000,8196.000000,17.602970,0.000000,0.000000,0.000000,0.000000,
42.000000,4390.769231,0.000000,0.000000,0.000000,4728.205128,0.000000,4307.692308,0.000000,0.000000,4246.666667,0.000000,0.000000,0.000000,4421.025641,8183.000000,8188.000000,17.610786,0.000000,0.000000,0.000000,0.000000,
43.000000,4564.615385,0.000000,0.000000,0.000000,4734.358974,0.000000,4258.974359,0.000000,0.000000,4290.256410,0.000000,0.000000,0.000000,4617.948718,8184.000000,8190.000000,17.618602,0.000000,0.000000,0.000000,0.000000,
44.000000,4394.871795,0.000000,0.000000,0.000000,4690.256410,0.000000,4225.641026,0.000000,0.000000,4258.461538,0.000000,0.000000,0.000000,4350.769231,8184.000000,8197.000000,17.626418,0.000000,0.000000,0.000000,0.000000,
45.000000,4251.282051,0.000000,0.000000,0.000000,4695.897436,0.000000,4281.538462,0.000000,0.000000,4181.025641,0.000000,0.000000,0.000000,4136.410256,8183.000000,8196.000000,17.634235,0.000000,0.000000,0.000000,0.000000,
46.000000,4298.974359,0.000000,0.000000,0.000000,4737.948718,0.000000,4311.282051,0.000000,0.000000,4206.666667,0.000000,0.000000,0.000000,4234.358974,8177.000000,8199.000000,17.642051,0.000000,0.000000,0.000000,0.000000,
47.000000,4299.487179,0.000000,0.000000,0.000000,4737.435897,0.000000,4273.846154,0.000000,0.000000,4195.384615,0.000000,0.000000,0.000000,4203.589744,8178.000000,8208.000000,17.649867,0.000000,0.000000,0.000000,0.000000,
48.000000,4312.820513,0.000000,0.000000,0.000000,4707.179487,0.000000,4268.717949,0.000000,0.000000,4194.871795,0.000000,0.000000,0.000000,4169.230769,8174.000000,8215.000000,17.657683,0.000000,0.000000,0.000000,0.000000,
49.000000,4259.487179,0.000000,0.000000,0.000000,4693.846154,0.000000,4271.794872,0.000000,0.000000,4167.179487,0.000000,0.000000,0.000000,4176.410256,8166.000000,8223.000000,17.665499,0.000000,0.000000,0.000000,0.000000,
50.000000,4237.435897,0.000000,0.000000,0.000000,4724.615385,0.000000,4257.948718,0.000000,0.000000,4182.051282,0.000000,0.000000,0.000000,4177.435897,8163.000000,8227.000000,17.673315,0.000000,0.000000,0.000000,0.000000,
51.000000,4235.897436,0.000000,0.000000,0.000000,4707.692308,0.000000,4258.461538,0.000000,0.000000,4185.641026,0.000000,0.000000,0.000000,4163.076923,8161.000000,8234.000000,17.681131,0.000000,0.000000,0.000000,0.000000,
52.000000,4272.820513,0.000000,0.000000,0.000000,4708.717949,0.000000,4311.794872,0.000000,0.000000,4189.230769,0.000000,0.000000,0.000000,4190.769231,8156.000000,8237.000000,17.688948,0.000000,0.000000,0.000000,0.000000,
53.000000,4245.128205,0.000000,0.000000,0.000000,4717.435897,0.000000,4300.000000,0.000000,0.000000,4164.102564,0.000000,0.000000,0.000000,4184.102564,8153.000000,8243.000000,17.696764,0.000000,0.000000,0.000000,0.000000,
54.000000,4282.564103,0.000000,0.000000,0.000000,4712.820513,0.000000,4256.410256,0.000000,0.000000,4187.692308,0.000000,0.000000,0.000000,4220.000000,8159.000000,8236.000000,17.704580,0.000000,0.000000,0.000000,0.000000,
55.000000,4294.358974,0.000000,0.000000,0.000000,4676.923077,0.000000,4244.102564,0.000000,0.000000,4182.564103,0.000000,0.000000,0.000000,4231.794872,8157.000000,8239.000000,17.712396,0.000000,0.000000,0.000000,0.000000,
56.000000,4269.743590,0.000000,0.000000,0.000000,4687.179487,0.000000,4280.000000,0.000000,0.000000,4175.897436,0.000000,0.000000,0.000000,4220.000000,8155.000000,8242.000000,17.720212,0.000000,0.000000,0.000000,0.000000,
57.000000,4245.128205,0.000000,0.000000,0.000000,4681.025641,0.000000,4268.717949,0.000000,0.000000,4192.307692,0.000000,0.000000,0.000000,4222.051282,8162.000000,8243.000000,17.728028,0.000000,0.000000,0.000000,0.000000,
58.000000,4234.358974,0.000000,0.000000,0.000000,4676.923077,0.000000,4270.769231,0.000000,0.000000,4171.282051,0.000000,0.000000,0.000000,4189.743590,8155.000000,8246.000000,17.735845,0.000000,0.000000,0.000000,0.000000,
59.000000,4238.461538,0.000000,0.000000,0.000000,4690.256410,0.000000,4293.333333,0.000000,0.000000,4184.615385,0.000000,0.000000,0.000000,4198.974359,8157.000000,8240.000000,17.743661,0.000000,0.000000,0.000000,0.000000,
60.000000,4195.897436,0.000000,0.000000,0.000000,4721.538462,0.000000,4301.025641,0.000000,0.000000,4203.589744,0.000000,0.000000,0.000000,4222.564103,8164.000000,8235.000000,17.751477,0.000000,0.000000,0.000000,0.000000,
61.000000,4212.307692,0.000000,0.000000,0.000000,4740.000000,0.000000,4282.564103,0.000000,0.000000,4177.435897,0.000000,0.000000,0.000000,4254.871795,8166.000000,8228.000000,17.759293,0.000000,0.000000,0.000000,0.000000,
62.000000,4254.358974,0.000000,0.000000,0.000000,4731.282051,0.000000,4283.589744,0.000000,0.000000,4113.846154,0.000000,0.000000,0.000000,4210.769231,8168.000000,8222.000000,17.767109,0.000000,0.000000,0.000000,0.000000,
63.000000,4273.333333,0.000000,0.000000,0.000000,4703.076923,0.000000,4277.435897,0.000000,0.000000,4177.948718,0.000000,0.000000,0.000000,4216.923077,8171.000000,8228.000000,17.774925,0.000000,0.000000,0.000000,0.000000,
64.000000,4207.692308,0.000000,0.000000,0.000000,4692.307692,0.000000,4256.923077,0.000000,0.000000,4202.564103,0.000000,0.000000,0.000000,4197.435897,8172.000000,8213.000000,17.782742,0.000000,0.000000,0.000000,0.000000,
65.000000,4261.538462,0.000000,0.000000,0.000000,4706.153846,0.000000,4273.333333,0.000000,0.000000,4205.641026,0.000000,0.000000,0.000000,4229.743590,8180.000000,8207.000000,17.790558,0.000000,0.000000,0.000000,0.000000,
66.000000,4283.076923,0.000000,0.000000,0.000000,4701.538462,0.000000,4283.589744,0.000000,0.000000,4174.871795,0.000000,0.000000,0.000000,4232.820513,8179.000000,8206.000000,17.798374,0.000000,0.000000,0.000000,0.000000,
67.000000,4240.000000,0.000000,0.000000,0.000000,4704.615385,0.000000,4280.512821,0.000000,0.000000,4205.641026,0.000000,0.000000,0.000000,4249.743590,8186.000000,8205.000000,17.806190,0.000000,0.000000,0.000000,0.000000,
68.000000,4191.794872,0.000000,0.000000,0.000000,4708.717949,0.000000,4272.820513,0.000000,0.000000,4231.794872,0.000000,0.000000,0.000000,4209.230769,8179.000000,8201.000000,17.814006,0.000000,0.000000,0.000000,0.000000,
69.000000,4246.153846,0.000000,0.000000,0.000000,4691.282051,0.000000,4260.000000,0.000000,0.000000,4216.923077,0.000000,0.000000,0.000000,4190.256410,8179.000000,8195.000000,17.821822,0.000000,0.000000,0.000000,0.000000,
70.000000,4210.256410,0.000000,0.000000,0.000000,4684.102564,0.000000,4231.282051,0.000000,0.000000,4064.102564,0.000000,0.000000,0.000000,4169.230769,8178.000000,8196.000000,17.829639,0.000000,0.000000,0.000000,0.000000,
71.000000,4148.205128,0.000000,0.000000,0.000000,4721.538462,0.000000,4256.410256,0.000000,0.000000,4014.871795,0.000000,0.000000,0.000000,4161.538462,8177.000000,8199.000000,17.837455,0.000000,0.000000,0.000000,0.000000,
72.000000,4212.307692,0.000000,0.000000,0.000000,4706.153846,0.000000,4278.461538,0.000000,0.000000,4109.230769,0.000000,0.000000,0.000000,4154.871795,8183.000000,8204.000000,17.845271,0.000000,0.000000,0.000000,0.000000,
73.000000,4364.102564,0.000000,0.000000,0.000000,4696.410256,0.000000,4283.076923,0.000000,0.000000,4173.846154,0.000000,0.000000,0.000000,4181.025641,8183.000000,8201.000000,17.853087,0.000000,0.000000,0.000000,0.000000,
74.000000,4390.769231,0.000000,0.000000,0.000000,4708.717949,0.000000,4267.692308,0.000000,0.000000,4147.179487,0.000000,0.000000,0.000000,4205.128205,8176.000000,8203.000000,17.860903,0.000000,0.000000,0.000000,0.000000,
75.000000,4380.512821,0.000000,0.000000,0.000000,4709.743590,0.000000,4270.256410,0.000000,0.000000,4177.435897,0.000000,0.000000,0.000000,4244.615385,8178.000000,8213.000000,17.868719,0.000000,0.000000,0.000000,0.000000,
76.000000,4358.974359,0.000000,0.000000,0.000000,4677.435897,0.000000,4275.384615,0.000000,0.000000,4225.641026,0.000000,0.000000,0.000000,4274.358974,8173.000000,8221.000000,17.876536,0.000000,0.000000,0.000000,0.000000,
77.000000,4299.487179,0.000000,0.000000,0.000000,4695.384615,0.000000,4285.128205,0.000000,0.000000,4207.179487,0.000000,0.000000,0.000000,4231.794872,8173.000000,8218.000000,17.884352,0.000000,0.000000,0.000000,0.000000,
78.000000,4221.538462,0.000000,0.000000,0.000000,4708.205128,0.000000,4275.384615,0.000000,0.000000,4197.948718,0.000000,0.000000,0.000000,4192.820513,8174.000000,8225.000000,17.892168,0.000000,0.000000,0.000000,0.000000,
79.000000,4227.179487,0.000000,0.000000,0.000000,4708.205128,0.000000,4296.410256,0.000000,0.000000,4186.666667,0.000000,0.000000,0.000000,4204.102564,8169.000000,8227.000000,17.899984,0.000000,0.000000,0.000000,0.000000,
80.000000,4275.384615,0.000000,0.000000,0.000000,4692.820513,0.000000,4310.256410,0.000000,0.000000,4207.692308,0.000000,0.000000,0.000000,4227.692308,8167.000000,8225.000000,17.907800,0.000000,0.000000,0.000000,0.000000,
81.000000,4129.743590,0.000000,0.000000,0.000000,4702.051282,0.000000,4296.923077,0.000000,0.000000,4157.435897,0.000000,0.000000,0.000000,4104.615385,8160.000000,8233.000000,17.915616,0.000000,0.000000,0.000000,0.000000,
82.000000,4058.974359,0.000000,0.000000,0.000000,4736.410256,0.000000,4289.230769,0.000000,0.000000,4130.256410,0.000000,0.000000,0.000000,4087.692308,8160.000000,8234.000000,17.923433,0.000000,0.000000,0.000000,0.000000,
83.000000,4102.051282,0.000000,0.000000,0.000000,4715.384615,0.000000,4267.179487,0.000000,0.000000,4131.282051,0.000000,0.000000,0.000000,4023.589744,8157.000000,8240.000000,17.931249,0.000000,0.000000,0.000000,0.000000,
84.000000,4172.307692,0.000000,0.000000,0.000000,4671.282051,0.000000,4277.435897,0.000000,0.000000,4215.897436,0.000000,0.000000,0.000000,3975.897436,8154.000000,8244.000000,17.939065,0.000000,0.000000,0.000000,0.000000,
85.000000,4116.410256,0.000000,0.000000,0.000000,4704.102564,0.000000,4336.410256,0.000000,0.000000,4214.358974,0.000000,0.000000,0.000000,4029.743590,8155.000000,8245.000000,17.946881,0.000000,0.000000,0.000000,0.000000,
86.000000,4108.717949,0.000000,0.000000,0.000000,4754.358974,0.000000,4351.794872,0.000000,0.000000,4214.358974,0.000000,0.000000,0.000000,4190.769231,8162.000000,8234.000000,17.954697,0.000000,0.000000,0.000000,0.000000,
87.000000,4126.666667,0.000000,0.000000,0.000000,4714.358974,0.000000,4300.000000,0.000000,0.000000,4191.282051,0.000000,0.000000,0.000000,4191.282051,8161.000000,8232.000000,17.962513,0.000000,0.000000,0.000000,0.000000,
88.000000,4236.410256,0.000000,0.000000,0.000000,4702.564103,0.000000,4307.692308,0.000000,0.000000,4218.974359,0.000000,0.000000,0.000000,4174.871795,8165.000000,8228.000000,17.970330,0.000000,0.000000,0.000000,0.000000,
89.000000,4266.666667,0.000000,0.000000,0.000000,4710.256410,0.000000,4308.717949,0.000000,0.000000,4242.564103,0.000000,0.000000,0.000000,4213.333333,8167.000000,8227.000000,17.978146,0.000000,0.000000,0.000000,0.000000,
90.000000,4186.666667,0.000000,0.000000,0.000000,4694.871795,0.000000,4284.615385,0.000000,0.000000,4238.974359,0.000000,0.000000,0.000000,4215.384615,8172.000000,8228.000000,17.985962,0.000000,0.000000,0.000000,0.000000,
91.000000,4145.128205,0.000000,0.000000,0.000000,4680.512821,0.000000,4289.743590,0.000000,0.000000,4191.794872,0.000000,0.000000,0.000000,4184.102564,8171.000000,8219.000000,17.993778,0.000000,0.000000,0.000000,0.000000,
92.000000,4235.897436,0.000000,0.000000,0.000000,4715.897436,0.000000,4331.282051,0.000000,0.000000,4196.410256,0.000000,0.000000,0.000000,4196.923077,8171.000000,8214.000000,18.001594,0.000000,0.000000,0.000000,0.000000,
93.000000,4223.589744,0.000000,0.000000,0.000000,4718.461538,0.000000,4313.333333,0.000000,0.000000,4203.076923,0.000000,0.000000,0.000000,4210.256410,8171.000000,8214.000000,18.009410,0.000000,0.000000,0.000000,0.000000,
94.000000,4151.794872,0.000000,0.000000,0.000000,4746.153846,0.000000,4298.974359,0.000000,0.000000,4160.512821,0.000000,0.000000,0.000000,4185.641026,8174.000000,8214.000000,18.017227,0.000000,0.000000,0.000000,0.000000,
95.000000,4187.179487,0.000000,0.000000,0.000000,4756.410256,0.000000,4296.923077,0.000000,0.000000,4156.923077,0.000000,0.000000,0.000000,4199.487179,8179.000000,8210.000000,18.025043,0.000000,0.000000,0.000000,0.000000,
96.000000,4261.538462,0.000000,0.000000,0.000000,4728.205128,0.000000,4303.589744,0.000000,0.000000,4190.256410,0.000000,0.000000,0.000000,4232.307692,8185.000000,8208.000000,18.032859,0.000000,0.000000,0.000000,0.000000,
97.000000,4280.000000,0.000000,0.000000,0.000000,4694.871795,0.000000,4294.871795,0.000000,0.000000,4221.025641,0.000000,0.000000,0.000000,4227.692308,8181.000000,8206.000000,18.040675,0.000000,0.000000,0.000000,0.000000,
98.000000,4252.820513,0.000000,0.000000,0.000000,4695.897436,0.000000,4286.666667,0.000000,0.000000,4193.846154,0.000000,0.000000,0.000000,4186.153846,8180.000000,8206.000000,18.048491,0.000000,0.000000,0.000000,0.000000,
99.000000,4293.333333,0.000000,0.000000,0.000000,4704.615385,0.000000,4286.666667,0.000000,0.000000,4197.435897,0.000000,0.000000,0.000000,4233.846154,8182.000000,8199.000000,18.056307,0.000000,0.000000,0.000000,0.000000,
100.000000,4298.461538,0.000000,0.000000,0.000000,4726.153846,0.000000,4301.538462,0.000000,0.000000,4207.179487,0.000000,0.000000,0.000000,4229.743590,8179.000000,8201.000000,18.064124,0.000000,0.000000,0.000000,0.000000,
101.000000,4314.871795,0.000000,0.000000,0.000000,4731.282051,0.000000,4307.692308,0.000000,0.000000,4256.923077,0.000000,0.000000,0.000000,4243.076923,8179.000000,8208.000000,18.071940,0.000000,0.000000,0.000000,0.000000,
102.000000,4278.974359,0.000000,0.000000,0.000000,4714.358974,0.000000,4276.923077,0.000000,0.000000,4229.230769,0.000000,0.000000,0.000000,4212.307692,8179.000000,8214.000000,18.079756,0.000000,0.000000,0.000000,0.000000,
103.000000,4266.666667,0.000000,0.000000,0.000000,4701.538462,0.000000,4267.692308,0.000000,0.000000,4228.717949,0.000000,0.000000,0.000000,4194.871795,8178.000000,8207.000000,18.087572,0.000000,0.000000,0.000000,0.000000,
104.000000,4272.307692,0.000000,0.000000,0.000000,4684.615385,0.000000,4282.564103,0.000000,0.000000,4231.282051,0.000000,0.000000,0.000000,4174.871795,8172.000000,8215.000000,18.095388,0.000000,0.000000,0.000000,0.000000,
105.000000,4303.076923,0.000000,0.000000,0.000000,4703.076923,0.000000,4295.897436,0.000000,0.000000,4267.692308,0.000000,0.000000,0.000000,4251.282051,8169.000000,8215.000000,18.103204,0.000000,0.000000,0.000000,0.000000,
106.000000,4213.846154,0.000000,0.000000,0.000000,4722.051282,0.000000,4292.820513,0.000000,0.000000,4207.179487,0.000000,0.000000,0.000000,4220.512821,8167.000000,8217.000000,18.111020,0.000000,0.000000,0.000000,0.000000,
107.000000,4231.282051,0.000000,0.000000,0.000000,4721.025641,0.000000,4313.846154,0.000000,0.000000,4167.179487,0.000000,0.000000,0.000000,4190.256410,8165.000000,8220.000000,18.118837,0.000000,0.000000,0.000000,0.000000,
108.000000,4318.461538,0.000000,0.000000,0.000000,4693.846154,0.000000,4299.487179,0.000000,0.000000,4186.153846,0.000000,0.000000,0.000000,4230.769231,8170.000000,8227.000000,18.126653,0.000000,0.000000,0.000000,0.000000,
109.000000,4344.615385,0.000000,0.000000,0.000000,4675.384615,0.000000,4278.461538,0.000000,0.000000,4256.923077,0.000000,0.000000,0.000000,4282.051282,8164.000000,8223.000000,18.134469,0.000000,0.000000,0.000000,0.000000,
110.000000,4217.435897,0.000000,0.000000,0.000000,4655.384615,0.000000,4293.846154,0.000000,0.000000,4201.025641,0.000000,0.000000,0.000000,4194.358974,8159.000000,8226.000000,18.142285,0.000000,0.000000,0.000000,0.000000,
111.000000,4192.307692,0.000000,0.000000,0.000000,4702.051282,0.000000,4326.666667,0.000000,0.000000,4126.666667,0.000000,0.000000,0.000000,4131.282051,8161.000000,8234.000000,18.150101,0.000000,0.000000,0.000000,0.000000,
112.000000,4281.025641,0.000000,0.000000,0.000000,4726.666667,0.000000,4300.512821,0.000000,0.000000,4162.051282,0.000000,0.000000,0.000000,4224.615385,8167.000000,8236.000000,18.157917,0.000000,0.000000,0.000000,0.000000,
113.000000,4372.307692,0.000000,0.000000,0.000000,4711.282051,0.000000,4289.743590,0.000000,0.000000,4226.666667,0.000000,0.000000,0.000000,4274.358974,8158.000000,8232.000000,18.165734,0.000000,0.000000,0.000000,0.000000,
114.000000,4389.743590,0.000000,0.000000,0.000000,4680.000000,0.000000,4295.384615,0.000000,0.000000,4252.820513,0.000000,0.000000,0.000000,4222.051282,8161.000000,8230.000000,18.173550,0.000000,0.000000,0.000000,0.000000,
115.000000,4307.692308,0.000000,0.000000,0.000000,4695.897436,0.000000,4314.358974,0.000000,0.000000,4212.820513,0.000000,0.000000,0.000000,4175.384615,8164.000000,8230.000000,18.181366,0.000000,0.000000,0.000000,0.000000,
116.000000,4220.512821,0.000000,0.000000,0.000000,4722.564103,0.000000,4316.410256,0.000000,0.000000,4200.000000,0.000000,0.000000,0.000000,4226.666667,8164.000000,8227.000000,18.189182,0.000000,0.000000,0.000000,0.000000,
117.000000,4162.051282,0.000000,0.000000,0.000000,4740.512821,0.000000,4307.179487,0.000000,0.000000,4214.871795,0.000000,0.000000,0.000000,4207.179487,8167.000000,8225.000000,18.196998,0.000000,0.000000,0.000000,0.000000,
118.000000,4253.333333,0.000000,0.000000,0.000000,4733.846154,0.000000,4291.282051,0.000000,0.000000,4261.538462,0.000000,0.000000,0.000000,4222.564103,8170.000000,8223.000000,18.204814,0.000000,0.000000,0.000000,0.000000,
119.000000,4296.410256,0.000000,0.000000,0.000000,4721.538462,0.000000,4290.769231,0.000000,0.000000,4184.102564,0.000000,0.000000,0.000000,4225.128205,8167.000000,8223.000000,18.212631,0.000000,0.000000,0.000000,0.000000,
120.000000,4192.307692,0.000000,0.000000,0.000000,4690.256410,0.000000,4298.461538,0.000000,0.000000,4156.410256,0.000000,0.000000,0.000000,4188.205128,8173.000000,8223.000000,18.220447,0.000000,0.000000,0.000000,0.000000,
121.000000,4118.974359,0.000000,0.000000,0.000000,4666.666667,0.000000,4294.871795,0.000000,0.000000,4196.923077,0.000000,0.000000,0.000000,4146.666667,8169.000000,8215.000000,18.228263,0.000000,0.000000,0.000000,0.000000,
122.000000,4276.410256,0.000000,0.000000,0.000000,4708.717949,0.000000,4304.615385,0.000000,0.000000,4249.743590,0.000000,0.000000,0.000000,4239.487179,8174.000000,8212.000000,18.236079,0.000000,0.000000,0.000000,0.000000,
123.000000,4284.102564,0.000000,0.000000,0.000000,4725.128205,0.000000,4303.589744,0.000000,0.000000,4185.641026,0.000000,0.000000,0.000000,4236.923077,8174.000000,8216.000000,18.243895,0.000000,0.000000,0.000000,0.000000,
124.000000,4195.384615,0.000000,0.000000,0.000000,4705.641026,0.000000,4313.846154,0.000000,0.000000,4172.820513,0.000000,0.000000,0.000000,4204.615385,8181.000000,8209.000000,18.251711,0.000000,0.000000,0.000000,0.000000,
125.000000,4213.846154,0.000000,0.000000,0.000000,4686.666667,0.000000,4300.512821,0.000000,0.000000,4194.358974,0.000000,0.000000,0.000000,4197.435897,8173.000000,8210.000000,18.259528,0.000000,0.000000,0.000000,0.000000,
126.000000,4300.512821,0.000000,0.000000,0.000000,4686.153846,0.000000,4295.384615,0.000000,0.000000,4229.743590,0.000000,0.000000,0.000000,4215.384615,8172.000000,8210.000000,18.267344,0.000000,0.000000,0.000000,0.000000,
127.000000,4222.564103,0.000000,0.000000,0.000000,4663.589744,0.000000,4285.128205,0.000000,0.000000,4197.435897,0.000000,0.000000,0.000000,4174.871795,8176.000000,8209.000000,18.275160,0.000000,0.000000,0.000000,0.000000,
128.000000,4183.076923,0.000000,0.000000,0.000000,4692.820513,0.000000,4298.461538,0.000000,0.000000,4182.564103,0.000000,0.000000,0.000000,4179.487179,8174.000000,8217.000000,18.282976,0.000000,0.000000,0.000000,0.000000,
0.000000,4225.128205,0.000000,0.000000,0.000000,4740.000000,0.000000,4305.128205,0.000000,0.000000,4186.666667,0.000000,0.000000,0.000000,4210.769231,8174.000000,8211.000000,18.290792,0.000000,0.000000,0.000000,0.000000,
1.000000,4290.769231,0.000000,0.000000,0.000000,4753.333333,0.000000,4303.076923,0.000000,0.000000,4210.256410,0.000000,0.000000,0.000000,4223.076923,8180.000000,8209.000000,18.298608,0.000000,0.000000,0.000000,0.000000,
2.000000,4279.487179,0.000000,0.000000,0.000000,4699.487179,0.000000,4287.179487,0.000000,0.000000,4184.615385,0.000000,0.000000,0.000000,4209.230769,8177.000000,8213.000000,18.306425,0.000000,0.000000,0.000000,0.000000,
3.000000,4173.846154,0.000000,0.000000,0.000000,4674.358974,0.000000,4309.743590,0.000000,0.000000,4116.410256,0.000000,0.000000,0.000000,4134.871795,8178.000000,8216.000000,18.314241,0.000000,0.000000,0.000000,0.000000,
4.000000,4266.666667,0.000000,0.000000,0.000000,4696.923077,0.000000,4315.897436,0.000000,0.000000,4168.717949,0.000000,0.000000,0.000000,4169.743590,8173.000000,8215.000000,18.322057,0.000000,0.000000,0.000000,0.000000,
5.000000,4466.153846,0.000000,0.000000,0.000000,4708.205128,0.000000,4288.717949,0.000000,0.000000,4229.230769,0.000000,0.000000,0.000000,4260.000000,8173.000000,8218.000000,18.329873,0.000000,0.000000,0.000000,0.000000,
6.000000,4408.717949,0.000000,0.000000,0.000000,4675.384615,0.000000,4289.743590,0.000000,0.000000,4176.923077,0.000000,0.000000,0.000000,4263.589744,8175.000000,8216.000000,18.337689,0.000000,0.000000,0.000000,0.000000,
7.000000,4230.256410,0.000000,0.000000,0.000000,4695.897436,0.000000,4321.025641,0.000000,0.000000,4140.512821,0.000000,0.000000,0.000000,4177.948718,8167.000000,8221.000000,18.345505,0.000000,0.000000,0.000000,0.000000,
8.000000,4261.025641,0.000000,0.000000,0.000000,4715.384615,0.000000,4314.358974,0.000000,0.000000,4244.615385,0.000000,0.000000,0.000000,4198.461538,8169.000000,8229.000000,18.353322,0.000000,0.000000,0.000000,0.000000,
9.000000,4356.923077,0.000000,0.000000,0.000000,4716.923077,0.000000,4293.846154,0.000000,0.000000,4241.025641,0.000000,0.000000,0.000000,4251.794872,8165.000000,8233.000000,18.361138,0.000000,0.000000,0.000000,0.000000,
10.000000,4338.461538,0.000000,0.000000,0.000000,4717.435897,0.000000,4285.641026,0.000000,0.000000,4205.641026,0.000000,0.000000,0.000000,4270.769231,8168.000000,8224.000000,18.368954,0.000000,0.000000,0.000000,0.000000,
11.000000,4174.871795,0.000000,0.000000,0.000000,4690.769231,0.000000,4301.025641,0.000000,0.000000,4172.820513,0.000000,0.000000,0.000000,4136.410256,8163.000000,8230.000000,18.376770,0.000000,0.000000,0.000000,0.000000,
12.000000,4216.923077,0.000000,0.000000,0.000000,4669.230769,0.000000,4332.820513,0.000000,0.000000,4223.076923,0.000000,0.000000,0.000000,4205.641026,8162.000000,8237.000000,18.384586,0.000000,0.000000,0.000000,0.000000,
13.000000,4428.205128,0.000000,0.000000,0.000000,4705.641026,0.000000,4325.641026,0.000000,0.000000,4239.487179,0.000000,0.000000,0.000000,4422.564103,8166.000000,8228.000000,18.392402,0.000000,0.000000,0.000000,0.000000,
14.000000,4522.564103,0.000000,0.000000,0.000000,4744.615385,0.000000,4296.410256,0.000000,0.000000,4233.333333,0.000000,0.000000,0.000000,4431.282051,8166.000000,8234.000000,18.400219,0.000000,0.000000,0.000000,0.000000,
15.000000,4275.384615,0.000000,0.000000,0.000000,4677.948718,0.000000,4275.897436,0.000000,0.000000,4155.897436,0.000000,0.000000,0.000000,4167.692308,8162.000000,8230.000000,18.408035,0.000000,0.000000,0.000000,0.000000,
16.000000,4181.538462,0.000000,0.000000,0.000000,4677.435897,0.000000,4297.435897,0.000000,0.000000,4189.230769,0.000000,0.000000,0.000000,4157.948718,8171.000000,8218.000000,18.415851,0.000000,0.000000,0.000000,0.000000,
17.000000,4161.538462,0.000000,0.000000,0.000000,4723.589744,0.000000,4305.128205,0.000000,0.000000,4210.769231,0.000000,0.000000,0.000000,4233.846154,8170.000000,8221.000000,18.423667,0.000000,0.000000,0.000000,0.000000,
18.000000,4168.717949,0.000000,0.000000,0.000000,4730.769231,0.000000,4311.282051,0.000000,0.000000,4182.051282,0.000000,0.000000,0.000000,4173.846154,8170.000000,8228.000000,18.431483,0.000000,0.000000,0.000000,0.000000,
19.000000,4217.435897,0.000000,0.000000,0.000000,4698.461538,0.000000,4300.512821,0.000000,0.000000,4186.666667,0.000000,0.000000,0.000000,4174.871795,8170.000000,8219.000000,18.439299,0.000000,0.000000,0.000000,0.000000,
20.000000,4177.435897,0.000000,0.000000,0.000000,4721.538462,0.000000,4315.384615,0.000000,0.000000,4210.769231,0.000000,0.000000,0.000000,4216.410256,8170.000000,8220.000000,18.447116,0.000000,0.000000,0.000000,0.000000,
21.000000,4105.128205,0.000000,0.000000,0.000000,4711.282051,0.000000,4306.666667,0.000000,0.000000,4184.102564,0.000000,0.000000,0.000000,4215.384615,8172.000000,8217.000000,18.454932,0.000000,0.000000,0.000000,0.000000,
22.000000,4163.076923,0.000000,0.000000,0.000000,4708.205128,0.000000,4302.564103,0.000000,0.000000,4116.923077,0.000000,0.000000,0.000000,4189.230769,8176.000000,8213.000000,18.462748,0.000000,0.000000,0.000000,0.000000,
23.000000,4294.358974,0.000000,0.000000,0.000000,4738.461538,0.000000,4305.641026,0.000000,0.000000,4146.153846,0.000000,0.000000,0.000000,4210.256410,8173.000000,8216.000000,18.470564,0.000000,0.000000,0.000000,0.000000,
24.000000,4282.564103,0.000000,0.000000,0.000000,4714.358974,0.000000,4298.461538,0.000000,0.000000,4201.538462,0.000000,0.000000,0.000000,4198.974359,8169.000000,8211.000000,18.478380,0.000000,0.000000,0.000000,0.000000,
25.000000,4268.717949,0.000000,0.000000,0.000000,4666.666667,0.000000,4303.589744,0.000000,0.000000,4228.717949,0.000000,0.000000,0.000000,4225.128205,8176.000000,8210.000000,18.486196,0.000000,0.000000,0.000000,0.000000,
26.000000,4278.461538,0.000000,0.000000,0.000000,4702.564103,0.000000,4322.564103,0.000000,0.000000,4193.846154,0.000000,0.000000,0.000000,4223.076923,8171.000000,8211.000000,18.494013,0.000000,0.000000,0.000000,0.000000,
27.000000,4280.000000,0.000000,0.000000,0.000000,4740.000000,0.000000,4310.256410,0.000000,0.000000,4206.153846,0.000000,0.000000,0.000000,4223.589744,8170.000000,8214.000000,18.501829,0.000000,0.000000,0.000000,0.000000,
28.000000,4242.564103,0.000000,0.000000,0.000000,4703.076923,0.000000,4279.487179,0.000000,0.000000,4181.025641,0.000000,0.000000,0.000000,4173.333333,8173.000000,8214.000000,18.509645,0.000000,0.000000,0.000000,0.000000,
29.000000,4281.025641,0.000000,0.000000,0.000000,4680.000000,0.000000,4293.333333,0.000000,0.000000,4194.871795,0.000000,0.000000,0.000000,4193.846154,8174.000000,8217.000000,18.517461,0.000000,0.000000,0.000000,0.000000,
30.000000,4231.794872,0.000000,0.000000,0.000000,4713.846154,0.000000,4288.205128,0.000000,0.000000,4192.307692,0.000000,0.000000,0.000000,4198.974359,8178.000000,8215.000000,18.525277,0.000000,0.000000,0.000000,0.000000,
31.000000,4158.974359,0.000000,0.000000,0.000000,4735.897436,0.000000,4276.410256,0.000000,0.000000,4217.948718,0.000000,0.000000,0.000000,4203.076923,8175.000000,8215.000000,18.533093,0.000000,0.000000,0.000000,0.000000,
32.000000,4161.538462,0.000000,0.000000,0.000000,4683.589744,0.000000,4283.076923,0.000000,0.000000,4211.282051,0.000000,0.000000,0.000000,4170.256410,8175.000000,8223.000000,18.540910,0.000000,0.000000,0.000000,0.000000,
33.000000,4256.923077,0.000000,0.000000,0.000000,4683.076923,0.000000,4321.538462,0.000000,0.000000,4212.307692,0.000000,0.000000,0.000000,4222.564103,8169.000000,8224.000000,18.548726,0.000000,0.000000,0.000000,0.000000,
34.000000,4234.358974,0.000000,0.000000,0.000000,4735.897436,0.000000,4324.615385,0.000000,0.000000,4154.871795,0.000000,0.000000,0.000000,4207.179487,8163.000000,8214.000000,18.556542,0.000000,0.000000,0.000000,0.000000,
35.000000,4251.282051,0.000000,0.000000,0.000000,4738.974359,0.000000,4302.051282,0.000000,0.000000,4172.307692,0.000000,0.000000,0.000000,4164.615385,8169.000000,8225.000000,18.564358,0.000000,0.000000,0.000000,0.000000,
36.000000,4248.717949,0.000000,0.000000,0.000000,4680.512821,0.000000,4281.025641,0.000000,0.000000,4185.128205,0.000000,0.000000,0.000000,4154.871795,8164.000000,8222.000000,18.572174,0.000000,0.000000,0.000000,0.000000,
37.000000,4227.692308,0.000000,0.000000,0.000000,4702.051282,0.000000,4304.102564,0.000000,0.000000,4147.692308,0.000000,0.000000,0.000000,4157.948718,8166.000000,8221.000000,18.579990,0.000000,0.000000,0.000000,0.000000,
38.000000,4269.743590,0.000000,0.000000,0.000000,4715.384615,0.000000,4305.641026,0.000000,0.000000,4133.846154,0.000000,0.000000,0.000000,4173.846154,8164.000000,8228.000000,18.587806,0.000000,0.000000,0.000000,0.000000,
39.000000,4305.641026,0.000000,0.000000,0.000000,4702.051282,0.000000,4294.358974,0.000000,0.000000,4171.794872,0.000000,0.000000,0.000000,4214.871795,8164.000000,8228.000000,18.595623,0.000000,0.000000,0.000000,0.000000,
40.000000,4287.179487,0.000000,0.000000,0.000000,4700.512821,0.000000,4294.358974,0.000000,0.000000,4203.076923,0.000000,0.000000,0.000000,4238.461538,8166.000000,8231.000000,18.603439,0.000000,0.000000,0.000000,0.000000,
41.000000,4255.897436,0.000000,0.000000,0.000000,4690.256410,0.000000,4307.179487,0.000000,0.000000,4211.282051,0.000000,0.000000,0.000000,4187.179487,8170.000000,8231.000000,18.611255,0.000000,0.000000,0.000000,0.000000,
42.000000,4172.820513,0.000000,0.000000,0.000000,4668.205128,0.000000,4309.743590,0.000000,0.000000,4209.743590,0.000000,0.000000,0.000000,4179.487179,8167.000000,8225.000000,18.619071,0.000000,0.000000,0.000000,0.000000,
43.000000,4167.692308,0.000000,0.000000,0.000000,4725.641026,0.000000,4316.923077,0.000000,0.000000,4176.410256,0.000000,0.000000,0.000000,4194.871795,8173.000000,8224.000000,18.626887,0.000000,0.000000,0.000000,0.000000,
44.000000,4284.102564,0.000000,0.000000,0.000000,4736.923077,0.000000,4279.487179,0.000000,0.000000,4227.179487,0.000000,0.000000,0.000000,4229.230769,8171.000000,8227.000000,18.634703,0.000000,0.000000,0.000000,0.000000,
45.000000,4217.948718,0.000000,0.000000,0.000000,4683.589744,0.000000,4267.179487,0.000000,0.000000,4225.128205,0.000000,0.000000,0.000000,4170.769231,8169.000000,8230.000000,18.642520,0.000000,0.000000,0.000000,0.000000,
46.000000,4200.512821,0.000000,0.000000,0.000000,4685.128205,0.000000,4311.794872,0.000000,0.000000,4192.820513,0.000000,0.000000,0.000000,4189.743590,8171.000000,8227.000000,18.650336,0.000000,0.000000,0.000000,0.000000,
47.000000,4335.897436,0.000000,0.000000,0.000000,4729.743590,0.000000,4329.743590,0.000000,0.000000,4172.307692,0.000000,0.000000,0.000000,4251.282051,8171.000000,8226.000000,18.658152,0.000000,0.000000,0.000000,0.000000,
48.000000,4315.897436,0.000000,0.000000,0.000000,4716.923077,0.000000,4314.871795,0.000000,0.000000,4226.666667,0.000000,0.000000,0.000000,4245.641026,8170.000000,8220.000000,18.665968,0.000000,0.000000,0.000000,0.000000,
49.000000,4114.358974,0.000000,0.000000,0.000000,4701.025641,0.000000,4312.307692,0.000000,0.000000,4172.820513,0.000000,0.000000,0.000000,4126.666667,8174.000000,8217.000000,18.673784,0.000000,0.000000,0.000000,0.000000,
50.000000,4219.487179,0.000000,0.000000,0.000000,4746.666667,0.000000,4320.512821,0.000000,0.000000,4147.179487,0.000000,0.000000,0.000000,4172.307692,8172.000000,8215.000000,18.681600,0.000000,0.000000,0.000000,0.000000,
51.000000,4325.128205,0.000000,0.000000,0.000000,4732.820513,0.000000,4286.153846,0.000000,0.000000,4157.435897,0.000000,0.000000,0.000000,4231.794872,8176.000000,8216.000000,18.689417,0.000000,0.000000,0.000000,0.000000,
52.000000,4262.051282,0.000000,0.000000,0.000000,4694.871795,0.000000,4295.384615,0.000000,0.000000,4173.333333,0.000000,0.000000,0.000000,4220.000000,8172.000000,8211.000000,18.697233,0.000000,0.000000,0.000000,0.000000,
53.000000,4167.179487,0.000000,0.000000,0.000000,4690.769231,0.000000,4309.230769,0.000000,0.000000,4152.820513,0.000000,0.000000,0.000000,4138.974359,8169.000000,8212.000000,18.705049,0.000000,0.000000,0.000000,0.000000,
